timestamp,TP9,AF7,AF8,TP10,noise
1657000015.2423964,248.79310465231538,449.84077652031556,-487.8587295198813,0.45626779459416866,0.0
1657000015.2423964,-97.25235844776034,460.9445394887589,-653.9757358017378,0.18325509782880545,0.0
1657000015.2424183,44.59830697160214,13.003632145933807,-972.9087941730395,-1.9971065763384104,0.0
1657000015.2424183,317.4015693394467,436.8857630738057,-496.5184678672813,-0.9574143886566162,0.0
1657000015.2424393,83.43342811148614,63.47919189790264,-23.31453632377088,-1.929788377135992,0.0
1657000015.2424393,-97.55155044421554,445.0013459776528,322.9590606736019,-2.7563062673434615,0.0
1657000015.24246,37.219484359025955,50.27921500429511,40.149695974309,-2.2327202735468745,0.0
1657000015.24246,354.6434930982068,409.71912979567423,436.96991082280874,-0.9948133882135153,0.0
1657000015.2509708,117.59741420671344,1.9092189273796976,906.3778439112939,-1.6343362806364894,0.0
1657000015.2509708,-90.22134653106332,414.4688027394004,1272.379413174931,1.3613235838711262,0.0
1657000015.2517004,17.31199689488858,91.87438231147826,1064.502683987841,1.1780684860423207,0.0
1657000015.2517004,369.49089592229575,428.3999300743453,1436.632079328876,0.7367602912709117,0.0
1657000015.2653055,136.9139974778518,-45.097583615686744,1813.585945612751,-2.501993070356548,0.0
1657000015.2653055,-124.27687552757561,435.0045933960937,2258.3385882433504,-0.605863792821765,0.0
1657000015.280988,-12.435167352668941,155.27316636033356,2110.1618820489384,0.08975759893655777,0.0
1657000015.280988,395.1466096183285,401.30809479532763,2386.2244672281668,0.33285109605640173,0.0
1657000015.2816944,156.06602515093982,869.5342194978148,2720.603312416468,-1.002293188124895,0.0
1657000015.2816944,-155.78927255421877,469.6921654851176,2292.8578648343682,1.163108886219561,0.0
1657000015.295314,-57.13071172311902,241.02533244434744,2208.786783780437,2.569311269558966,0.0
1657000015.295314,412.0172983184457,433.09724441869184,2432.894678775221,-0.28049249667674303,0.0
1657000015.310984,198.15859915222973,801.6438156021759,2679.670107401442,-4.345763748511672,0.0
1657000015.310984,-175.88001511618495,458.9736122121103,2276.6790576260537,-0.684401691891253,0.0
1657000015.3116946,-81.38022303581238,296.2973138894886,2263.759573229123,-3.171435162425041,0.0
1657000015.3116946,-558.9149587280117,423.9195299274288,2421.3982263114303,-0.964894188567996,0.0
1657000015.325297,-748.0678787869401,753.7394370697439,2618.9864907204174,0.2056944975629449,0.0
1657000015.325297,-1170.0744498870336,414.1808304428123,2226.332524422556,-0.12715659849345684,0.0
1657000015.3409708,-1101.6305407979526,369.8087874185294,2310.929061420262,0.8938360894098878,0.0
1657000015.3409708,-1532.3791280444711,465.5371366343461,2472.0046825618483,1.9821469765156507,0.0
1657000015.3416953,-1688.710686092265,702.0502797821537,2567.901327275671,-1.7203539796173573,0.0
1657000015.3416953,-2163.2404121700674,409.96596319274977,2241.264074995648,0.6956213917583227,0.0
1657000015.3552876,-2112.785421867855,431.6611228357069,2385.6092536854558,-1.4623008826747537,0.0
1657000015.3552876,-2543.530269214418,502.8220692425966,2500.470931074582,-2.056944975629449,0.0
1657000015.3709686,-2638.131038593594,647.0793602834456,2502.3090919028036,-2.5169526701793075,0.0
1657000015.3709686,-3099.675832025241,344.9496724130586,2153.5316318850964,1.4361215829849243,0.0
1657000015.3717003,-3134.9393487074412,434.77458954881877,2393.913701537065,-0.07479799911379814,0.0
1657000015.3717003,-3544.9352310998365,564.4313111626543,2568.9092303137295,1.20798768568784,0.0
1657000015.385296,-3628.207843513228,650.6004760917276,2521.842589371372,-0.06731819920241833,0.0
1657000015.385296,-4050.749220306985,309.6506266812794,2119.7378958854824,0.6245632926002145,0.0
1657000015.4009798,-4077.597962088883,374.14520141715184,2323.528784370981,0.13463639840483665,0.0
1657000015.4009798,-3623.682564566843,643.8873556712642,2649.1450439631008,2.045725275762379,0.0
1657000015.4016955,-3654.3460043035448,733.1643774635158,2590.092023662757,0.40390919521450996,0.0
1657000015.4016955,-3918.869128169492,1134.201329512056,2951.4935159808956,0.2767525967210531,0.0
1657000015.4153163,-3998.297123428434,1175.6842998205684,3098.2023114426993,0.7367602912709117,0.0
1657000015.4153163,-3786.6187859363854,780.2048391061835,2754.9767329092138,0.7778991907835007,0.0
1657000015.4309952,-3774.6922449776903,973.1481477702036,2855.5781717672944,-1.8736898778006434,0.0
1657000015.4309952,-3787.093753230758,1025.7984593464062,2865.305651552044,1.5109195820987225,0.0
1657000015.431707,-3863.5522679248825,982.8961970047094,2890.340541855432,-0.3104116963222623,0.0
1657000015.431707,-3846.1467735311016,842.3021379704587,2825.3635200252756,-2.090604075230658,0.0
1657000015.4616885,-3858.697877782397,1144.173772743903,3040.289960628841,-0.033659099601209164,0.0
1657000015.4616885,-3691.2419873164035,995.383722956758,2838.157717773691,-2.367356671951711,0.0
1657000015.4623983,-3831.16286435863,870.8693637819961,2790.999449282419,0.725540591403842,0.0
1657000015.4623983,-3904.4592936402187,874.5101563888602,2825.4644973240793,0.28423239663243294,0.0
1657000015.4631371,-3920.941032744944,1250.682383581996,3132.8263052324764,-0.38894959539175034,0.0
1657000015.4631371,-3610.45266847359,904.9753814279102,2736.3950399793684,-0.7218006914481521,0.0
1657000015.4752717,-3776.530405805912,743.4397525917739,2635.8197804209776,0.886356289498508,0.0
1657000015.4752717,-3998.132567830384,956.017536023166,2913.785974677652,0.44504809472709894,0.0
1657000015.5074253,-3965.4383624177426,1327.8252999680117,3219.113277010154,1.5370988817885518,0.0
1657000015.5074253,-3580.2492364314385,870.7627766332589,3687.894776856061,-1.0359522877261043,0.0
1657000015.5081372,-3753.9189706738107,654.5535503448918,3533.195685138926,0.011219699867069721,0.0
1657000015.5081372,-4056.1571156429127,948.5788750112988,3881.6664733602665,2.01954597607255,0.0
1657000015.5088696,-4033.646657809615,1401.8715791907161,4268.325380029157,0.3665101956576109,0.0
1657000015.5088696,-4493.194344664924,1777.2154185436666,4600.095644998364,-1.5109195820987225,0.0
1657000015.5096138,-4711.985971872695,1589.1938182213344,4431.667380543891,-1.7203539796173573,0.0
1657000015.5096138,-5075.853928211611,1987.0312858577818,4883.886733436026,0.34407079592347145,0.0
1657000015.5203383,-5025.2755212108605,2415.8987034265883,5267.460222641472,0.5011465940624475,0.0
1657000015.5203383,-5460.487679054495,2773.0815885947086,5577.217436471488,-2.1429626746103168,0.0
1657000015.5353146,-5664.450602937955,2559.76330497209,5388.776967354119,0.9536744887009263,0.0
1657000015.5353146,-6080.366746960208,3001.0135312941857,4906.565486767329,2.2028010739013553,0.0
1657000015.5509613,-6031.445115639828,3465.810167737305,5326.371126743499,1.2416467852890491,0.0
1657000015.5509613,-6405.771702204831,3715.239055382088,5548.091095616575,-0.7704193908721209,0.0
1657000015.551694,-6618.744045081548,3471.650021518115,5335.442254086025,1.002293188124895,0.0
1657000015.551694,-7103.0592193934135,3045.2752472697757,4954.305309701711,-0.7778991907835007,0.0
1657000015.5653152,-7052.144221396651,3532.4439652478322,5409.352026960347,1.0583916874602437,0.0
1657000015.5653152,-7354.668468712363,3707.482502873987,5541.673427292611,0.7143208915367723,0.0
1657000015.5809755,-7556.394932422321,3415.686158581171,5287.6051937527955,4.237306649796665,0.0
1657000015.5809755,-7136.733278594445,3065.582904029172,4975.682577848434,2.580530969426036,0.0
1657000015.5816944,-7074.811755028088,2617.0567023432814,4505.782847915776,1.331404384225607,0.0
1657000015.5816944,-7314.060634993482,2696.095748006832,4531.244086814113,1.1182300867512822,0.0
1657000015.595312,-7555.8863060283475,2388.4010890023783,4265.260532015469,0.4899268941953778,0.0
1657000015.595312,-7165.362212755252,2077.181574289687,3998.2092357794754,-0.9349749889224768,0.0
1657000015.6109772,-7107.188068944495,1691.1117018638179,3569.268890161533,1.1780684860423207,0.0
1657000015.6109772,-7300.002351060044,1695.8875541072339,3548.643341905903,2.7226471677422523,0.0
1657000015.6117022,-7549.969784298446,1380.5298400935717,3252.314238866791,1.4024624833837152,0.0
1657000015.6117022,-7194.469854110386,1140.3235457395203,3057.390653176233,-0.08975759893655777,0.0
1657000015.625337,-7124.2981112417765,725.0300950598903,2618.9247823711485,-0.17577529791742563,0.0
1657000015.625337,-7300.095848558936,697.740045083221,2557.1154558034614,2.9096421655267477,0.0
1657000015.6409817,-7528.678533850703,385.5537662319839,2252.109784867149,2.337437472306192,0.0
1657000015.6409817,-7207.432347356807,159.20006131380796,2071.6035135057755,0.6582223922014236,0.0
1657000015.641703,-7155.043828777503,-233.68764873128384,1655.6929793334566,-0.7367602912709117,0.0
1657000015.641703,-7295.233978616539,-276.03827582951635,1580.0273234299384,-0.8302577901631594,0.0
1657000015.6553175,-7507.690215299372,-643.0963668306358,1240.0124490084127,2.7525663673877716,0.0
1657000015.6553175,-7217.496418137569,-792.4305720613338,1116.4461544724181,0.8227779902517796,0.0
1657000015.6709683,-7172.411924171727,-1182.1206676443107,718.2365667903796,-1.8811696777120233,0.0
1657000015.6709683,-7265.408276469912,-1256.8251692592166,613.6502645295113,0.321631396189332,0.0
1657000015.6717012,-7489.820973311085,-1646.232902395539,236.52062294771895,1.2977452846243978,0.0
1657000015.6717012,-7234.127753240522,-1791.8496470702812,130.42340110475197,2.703947667963803,0.0
1657000015.6853087,-7186.331831806805,-2113.967230253853,-224.81099618645385,0.23187379725277424,0.0
1657000015.6853087,-7239.894678972196,-2238.116949182935,-373.47575932508335,2.490773370489478,0.0
1657000015.70096,-7478.388099146541,-2650.3754710485227,-763.4968360541388,1.409942283295095,0.0
1657000015.70096,-7244.842566613574,-2738.6146706030704,-822.4339194558561,0.08975759893655777,0.0
1657000015.701696,-7195.842397394124,-3082.7266054260544,-1185.4734879545867,1.3912427835166454,0.0
1657000015.701696,-7225.85135463858,-3216.169975745026,-1361.1889474727213,-1.6679953802376986,0.0
1657000015.7152958,-7461.839041842613,-3634.69656993635,-1770.3171730753966,4.095190451480448,0.0
1657000015.7152958,-7258.272547354456,-3713.7617948995903,-1802.2259994973429,-1.0696113873273134,0.0
1657000015.7309742,-7208.139188448433,-4041.7360614137724,-2142.3773802672513,0.5834243930876255,0.0
1657000015.7309742,-7205.637195378076,-4221.838423579931,-2350.2372799045406,2.0681646754965186,0.0
1657000015.731707,-7457.05196989933,-4626.53860763507,-2760.6370714921504,2.584270869381726,0.0
1657000015.731707,-7262.786606600974,-4682.472551372368,-2778.5362326800823,-0.9723739884793758,0.0
1657000015.7453094,-7203.8981418986805,-5018.55118109053,-3126.417986658402,-0.9574143886566162,0.0
1657000015.7453094,-7198.759519359563,-5187.30294689117,-3322.433623136021,2.4346748711541295,0.0
1657000015.7609873,-7454.138587833848,-5588.958852382377,-3719.758724478539,2.614190069027245,0.0
1657000015.7609873,-7280.4464141917415,-5642.97048754245,-3736.984703674447,0.2131742974743247,0.0
1657000015.7617393,-7230.544929082971,-5986.528917171992,-4083.6921290666796,-1.1892881859093904,0.0
1657000015.7617393,-7203.647568601649,-6177.039420914836,-4305.883325334173,2.1953212739899755,0.0
1657000015.775323,-7467.071161880624,-6591.396026655566,-4722.798022644594,2.3972758715972304,0.0
1657000015.775323,-7285.312024034094,-6604.657711898442,-4693.940954586491,0.49366679415106773,0.0
1657000015.7909904,-7204.41050819261,-6937.613525153603,-5032.805809771642,-0.3814697954803705,0.0
1657000015.7909904,-7170.732709091622,-7153.357133897487,-5283.794235697947,-1.529619081877172,0.0
1657000015.7917044,-7453.3345093433745,-7577.744151319377,-5694.545577881392,0.44504809472709894,0.0
1657000015.7917044,-7278.344590416644,-7596.484789997339,-5685.928848383483,1.286525584757328,0.0
1657000015.8052907,-7222.844475074206,-7919.915078065358,-6008.89164895704,-0.08227779902517796,0.0
1657000015.8052907,-7142.459065426607,-8152.252622912638,-6286.2688089706935,-0.007479799911379814,0.0
1657000015.8209634,-7450.70909957448,-8566.493291754741,-6689.207500146702,1.4136821832507849,0.0
1657000015.8209634,-7291.595055959653,-8578.603087811265,-6657.616565220989,0.4226086949929595,0.0
1657000015.8216932,-7220.843628597911,-8893.083795285318,-6994.345937531441,2.6403693687170744,0.0
1657000015.8216932,-7161.536295100581,-9127.029497113544,-7261.816102562472,0.3253712961450219,0.0
1657000015.8516977,-7467.654586273711,-9524.380777755752,-7658.972908406984,4.02787225227803,0.0
1657000015.8516977,-7304.479011307005,-9541.576837752014,-7640.307067728136,2.206540973857045,0.0
1657000015.8523958,-7216.426806750242,-9887.068795658648,-7997.388975597452,-0.38894959539175034,0.0
1657000015.8523958,-7147.343374768738,-10131.736790659837,-8253.766597359907,0.6470026923343539,0.0
1657000015.8531823,-7461.046183052007,-10521.828925488051,-8635.601033085957,3.1938745621591806,0.0
1657000015.8531823,-7315.724890473764,-10519.67848301353,-8614.717431733385,2.692727968096733,0.0
1657000015.8652656,-7230.26817648625,-10873.854488617275,-8978.306765525602,-0.018699499778449535,0.0
1657000015.8652656,-7163.163151581306,-11081.658289755229,-9210.913583169691,2.139222774654627,0.0
1657000015.8810132,-7474.584620891605,-11507.922736954875,-9626.448257396463,-1.694174679927528,0.0
1657000015.8810132,-7331.230515690055,-11478.16435300745,-9561.46001586644,4.132589451037347,0.0
1657000015.8817196,-7209.91190102743,-11850.886522491463,-9942.499722851906,1.9223085772246122,0.0
1657000015.8817196,-7145.731477887835,-12078.35845749639,-10202.61724457005,0.5983839929103851,0.0
1657000015.9116611,-7472.995163410436,-12476.53999592876,-10599.557136217132,2.3636167719960213,0.0
1657000015.9116611,-7339.619111290667,-12453.60692940047,-10542.202030496672,0.28797229658812284,0.0
1657000015.912387,-7222.5078840781935,-12837.657255850267,-10939.514042189345,0.5198460938408971,0.0
1657000015.912387,-7131.351562558208,-13071.10181108443,-11202.227054476738,-1.0247325878590345,0.0
1657000015.913134,-7474.595840591472,-13485.99696241878,-11611.022428983357,0.3665101956576109,0.0
1657000015.913134,-7342.214601859916,-13445.69206059631,-11535.180997781921,1.6231165807694197,0.0
1657000015.9252915,-7219.007337719668,-13819.667096565478,-11926.497949845623,3.61648325715214,0.0
1657000015.9252915,-7124.391608740669,-14054.558993082494,-12185.078372681979,0.8489572899416089,0.0
1657000015.940977,-7482.165398101788,-14447.26905787969,-12584.50903769955,-0.39268949534744024,0.0
1657000015.940977,-7353.112670330796,-14397.64432536764,-12503.611261758022,1.7053943797945976,0.0
1657000015.941715,-7220.996964496095,-14817.219961496536,-12904.50235770829,-0.17951519787311554,0.0
1657000015.941715,-7111.077564898413,-15054.423116186168,-13180.705189135857,2.3486571721732616,0.0
1657000015.9553368,-7491.556286890525,-15426.021445733495,-13551.693914990406,-0.12341669853776693,0.0
1657000015.9553368,-7373.81301658554,-15363.60251547303,-13447.85185282072,-0.4787071943283081,0.0
1657000015.971001,-7216.830715945456,-15794.31557366997,-13877.304564732593,2.6029703691601753,0.0
1657000015.971001,-7115.112916950602,-16028.788601391949,-14143.054375784006,-1.2827856848016381,0.0
1657000015.9717152,-7495.258787846658,-16408.128523847554,-14523.890258221887,1.4772604824975133,0.0
1657000015.9717152,-7380.204505609814,-16351.020251524169,-14429.719577337615,-0.6956213917583227,0.0
1657000015.9853296,-7195.580604397226,-16778.004629465286,-14861.225494325161,0.22065409738570452,0.0
1657000015.9853296,-7089.472162854392,-17029.554040384945,-15132.457998711616,3.066717963665724,0.0
1657000016.000754,-7491.387991392519,-17404.933408787474,-15522.007848046254,3.055498263798654,0.0
1657000016.000754,-7384.5652289581485,-17326.612423915416,-15404.960199133027,-1.447341282851994,0.0
1657000016.015983,-7189.540665968787,-17770.3029349586,-15860.681968333665,-0.5722046932205558,0.0
1657000016.015983,-7091.413170931395,-17995.564589089714,-16118.405954080168,0.6357829924672842,0.0
1657000016.0167117,-7500.259034087416,-18364.294415371027,-16479.124914656393,-2.584270869381726,0.0
1657000016.0167117,-7388.211631414946,-18300.91433082195,-16385.34692326747,2.857283566147089,0.0
1657000016.0309927,-7187.195748696569,-18757.97872410668,-16854.34907721076,0.9312350889667869,0.0
1657000016.0309927,-7079.187437976245,-18989.616907662246,-17113.684959838167,-0.28049249667674303,0.0
1657000016.0317237,-7512.989653536584,-19347.602001370862,-17464.459526432212,3.104116963222623,0.0
1657000016.0317237,-7398.283181995619,-19256.292343952693,-17334.93183136685,2.4421546710655093,0.0
1657000016.0616868,-7170.7177494918,-18774.69981680857,-16870.322189921513,-0.321631396189332,0.0
1657000016.0616868,-7066.004290632438,-19010.01432202058,-17135.458657380193,0.605863792821765,0.0
1657000016.0624187,-7503.0003807549365,-19352.131020217203,-17475.21173880482,0.003739899955689907,0.0
1657000016.0624187,-7401.443397458177,-19274.071828342043,-17341.596333087888,0.09349749889224768,0.0
1657000016.0631638,-7145.686599088367,-19747.07941513788,-16861.39504872728,-0.8489572899416089,0.0
1657000016.0631638,-7022.673809745815,-20004.829580184072,-17153.765467663296,-3.2050942620262504,0.0
1657000016.07532,-7492.199549682904,-20315.935027948115,-17458.984312897082,-0.06357829924672842,0.0
1657000016.07532,-7399.464990381617,-20227.359237397555,-17338.59319342347,1.8736898778006434,0.0
1657000016.0910373,-7153.491770295892,-19749.480430909432,-16864.274771693163,0.6956213917583227,0.0
1657000016.0910373,-7048.6062760385685,-19983.85996113252,-17127.163559278473,-0.3141515962779522,0.0
1657000016.0917532,-7505.868884020951,-20332.143754356075,-17451.197841189336,-0.06731819920241833,0.0
1657000016.0917532,-7417.854078463744,-20226.525239707436,-17315.263697499875,-1.084570987150073,0.0
1657000016.1053064,-7142.818095822353,-19769.9676028667,-16869.757465028204,1.7091342797502875,0.0
1657000016.1053064,-7028.407076377887,-20001.50854902342,-17135.578334178776,-1.6044170809909701,0.0
1657000016.1210308,-7502.514193760697,-20327.977505805437,-17441.717194801662,0.7367602912709117,0.0
1657000016.1210308,-7417.162196971942,-20220.72465487616,-17309.874501663726,-0.7068410916253924,0.0
1657000016.121752,-7149.359180844855,-19786.64755666908,-16877.89922723174,-1.0920507870614529,0.0
1657000016.121752,-7025.994840906467,-19992.020422835834,-17125.540442697704,-0.6283031925559044,0.0
1657000016.1353045,-7511.138403058518,-20321.05869088741,-17449.90009590471,0.044878799468278885,0.0
1657000016.1353045,-7436.729353540111,-20197.440037752036,-17287.412662529852,1.7016544798389077,0.0
1657000016.1510284,-7146.946945373435,-19763.146025347523,-16842.41879635211,4.0390919521451,0.0
1657000016.1510284,-7015.773694327567,-20024.90910304617,-17149.722635811195,0.9723739884793758,0.0
1657000016.15175,-6535.258258370683,-20316.926101436373,-17451.755086282734,2.3972758715972304,0.0
1657000016.15175,-6461.716865641996,-20210.316513299476,-17299.245705989655,0.523585993796587,0.0
1657000016.1653087,-6165.0717410566285,-19788.779299643822,-16888.707538103685,-1.0770911872386932,0.0
1657000016.1653087,-6044.317851287313,-20013.573466280475,-17147.519834737293,-0.7517198910936713,0.0
1657000016.1810143,-5555.395120230038,-20318.590356916655,-17455.797918134835,-1.847510578110814,0.0
1657000016.1810143,-5488.578067621682,-20207.829479828943,-17305.73069251282,2.0419853758066893,0.0
1657000016.181744,-5168.857760309707,-19785.09175828751,-16894.223890538327,0.018699499778449535,0.0
1657000016.181744,-5052.371096389834,-20022.16027657874,-17161.260227174498,0.8377375900745392,0.0
1657000016.196016,-230.1123043736443,191.34637138294056,398.37227333011106,7.816390907391906,0.0
1657000016.196741,-153.79964577779174,288.1462019360624,534.512111517135,7.558337810449302,0.0
1657000016.196741,178.03419749066234,707.5928115164861,952.3655237164348,8.47087339963764,0.0
1657000016.21036,294.2553285136819,480.2218538103625,694.9743890659884,8.05948440451175,0.0
1657000016.21036,752.5220996341668,187.07914553349838,388.6485334453173,8.164201603271067,0.0
1657000016.2260365,830.2559202131815,290.9660865026526,546.7565439720638,2.902162365615368,0.0
1657000016.2260365,1170.2913640844636,675.452111297287,915.119860057719,5.684647932648659,0.0
1657000016.226748,1272.1288398778997,468.72166144661605,681.181638029404,5.030165440402925,0.0
1657000016.226748,1739.7640603873879,170.8404999258928,382.911526913289,5.329357436858118,0.0
1657000016.240338,1803.6639910303056,309.2392376861535,558.0211226386018,8.564370898529887,0.0
1657000016.240338,2152.2750254999846,687.9994756486267,919.028055511415,6.372789524495602,0.0
1657000016.255994,2259.2025051331148,477.2561131455004,679.3341274512932,7.63687570951879,0.0
1657000016.255994,2714.533454788383,179.6591840214096,389.460091735702,9.903255082666874,0.0
1657000016.2567165,2784.245189962443,298.32620961545035,548.8583677471615,7.734113108366728,0.0
1657000016.2567165,3151.9072748064063,670.5939812548459,910.7217377098277,10.969126570038497,0.0
1657000016.2703424,3249.443865650799,466.3767441743985,678.7058242587373,5.957660629414022,0.0
1657000016.2703424,3696.300202006474,166.10952648194507,363.6435623415746,6.83653711900115,0.0
1657000016.2860208,3763.4949845103547,281.13762941909954,534.1942200209014,8.167941503226757,0.0
1657000016.2860208,4131.946188244969,668.9185060746968,918.4521109182388,7.577037310227752,0.0
1657000016.286736,4232.508358153515,477.02049944829196,680.0073094433174,8.175421303138137,0.0
1657000016.286736,4675.38170105638,191.75776037806645,387.1376138632186,5.071304339915514,0.0
1657000016.300334,4759.10684136441,280.6327429250814,531.4940122528933,8.373636000789702,0.0
1657000016.300334,5108.061946630012,654.7667246423662,904.2816299861297,8.190380902960896,0.0
1657000016.3159835,5231.777837164234,464.6376906950027,673.3465476222336,8.201600602827966,0.0
1657000016.3159835,5687.243423217908,195.74823363078758,398.252596531529,9.297391289845109,0.0
1657000016.3167088,5742.7472784603015,300.98901838390157,546.4723115754314,6.122216227464378,0.0
1657000016.3167088,6117.9751809146255,676.4880635850132,916.6569589395076,6.481246623210609,0.0
1657000016.3303275,6218.208239627071,470.6701493235305,685.5610608775169,5.23212003801018,0.0
1657000016.3303275,6626.809139335994,170.56748722912744,380.11408174643293,8.321277401410043,0.0
1657000016.3459597,6691.266315072309,284.76907227607444,533.2966440315358,8.265178902074695,0.0
1657000016.3459597,7068.382867004257,679.3977057505399,922.5061624702066,7.7079338086768985,0.0
1657000016.3467023,7158.409738737624,482.9744201777503,684.992596084252,8.84486339520663,0.0
1657000016.3467023,7600.924051244743,162.07791432971135,367.3348435978405,7.053451316431165,0.0
1657000016.3603,7665.534562879242,299.20882600499317,551.5024770158343,4.4467410473152995,0.0
1657000016.3603,8047.976732348092,679.5510416487232,921.9937961762771,5.598630233667791,0.0
1657000016.3760064,8140.677632549778,494.5232312409207,715.8056318191811,7.2666256139054894,0.0
1657000016.3760064,8594.20969032636,170.22715633315966,373.95820641936734,6.84775681886822,0.0
1657000016.3767145,8651.789190044161,280.1054170313291,533.0909495339729,7.461100411601365,0.0
1657000016.3767145,9084.170243621338,665.4291794160381,925.7710951315239,6.649542121216655,0.0
1657000016.3902931,9165.98429505201,463.68027630634606,686.1183059709147,6.477506723254919,0.0
1657000016.3902931,9583.164525259286,161.41221213759854,371.31783705065027,7.348903412930667,0.0
1657000016.405957,9655.913059197366,280.64770252490416,546.1095412797295,6.709380520507693,0.0
1657000016.405957,10024.98882622458,657.4183137109503,915.7406834503636,6.563524422235787,0.0
1657000016.4067085,10092.523939624429,486.258052338846,710.0387060875073,5.707087332382798,0.0
1657000016.4067085,10526.529979732353,145.59991512494162,372.9446935313754,5.852943430654705,0.0
1657000016.4202895,10590.826339770574,294.5339510603808,556.2633696594276,6.885155818425119,0.0
1657000016.4202895,10991.276127526071,659.3294025883079,920.6100331926718,8.141762203536928,0.0
1657000016.4359684,11058.156758433674,492.0436775702983,714.0927576394752,7.524678710848093,0.0
1657000016.4359684,11493.142652329989,173.26769499713555,394.08260808093473,6.45506732352078,0.0
1657000016.4367106,11570.539881912991,305.7199918278493,563.3093411759473,6.496206223033369,0.0
1657000016.4367106,11984.778680805117,648.3864553179592,912.0718415938318,5.826764130964875,0.0
1657000016.450309,12043.697064707056,488.13548211660236,700.6814763983712,5.849203530699015,0.0
1657000016.450309,12472.197972080205,173.64916479261592,376.92020718427375,5.490173134952784,0.0
1657000016.4659705,12545.619688010309,293.98418576689437,547.8186755594797,5.662208532914519,0.0
1657000016.4659705,12985.880710794125,636.8526038546115,879.6356892781332,5.781885331496596,0.0
1657000016.4667356,13036.00285000028,470.0792451305315,680.0521882427856,6.066117728129029,0.0
1657000016.4667356,13433.660802438855,194.0690185506828,405.18637104937807,8.568110798485577,0.0
1657000016.4802954,13518.69116783142,341.3200995060615,613.8428693772294,8.093143504112959,0.0
1657000016.4802954,14003.816030483693,624.327678903006,890.275704652071,6.327910725027323,0.0
1657000016.4957204,14185.99403712526,267.238291233778,468.04847945459187,5.314397837035358,0.0
1657000016.4957204,14382.557568946388,105.91583669511601,294.14126156503335,6.597183521836996,0.0
1657000016.5273871,14252.682063185144,-331.2616385752335,-67.75202759727836,5.991319729015231,0.0
1657000016.5273871,14034.146619124338,-269.4878410571255,16.25547515740618,6.84027701895684,0.0
1657000016.528112,14308.516899573617,81.17826843820512,301.4695955282077,6.268072325736284,0.0
1657000016.528112,14348.93212844478,86.7469794722274,267.89838357595727,5.276998837478459,0.0
1657000016.5288343,14168.586672781501,-211.1977603477426,55.788087639026344,4.383162748068571,0.0
1657000016.5288343,14051.462355919182,-241.59192728763446,63.987818291876465,10.935467470437288,0.0
1657000016.5295842,14352.535522052087,10.628795674070716,234.37953022308648,4.259746049530804,0.0
1657000016.5295842,14345.108080740087,65.68386292178184,249.54856444336474,7.2666256139054894,0.0
1657000016.5402968,14150.221894049086,-194.5926045444794,72.92617918597534,8.141762203536928,0.0
1657000016.5402968,14060.406326663215,-244.61002655187622,55.991912186611444,5.837983830831945,0.0
1657000016.5557432,14352.877722898033,32.31647551711649,246.8595763752237,7.3863024124875665,0.0
1657000016.5557432,14342.559338920284,90.13906873203814,253.79335089307278,4.611296645365655,0.0
1657000016.5710468,14155.945810931269,-195.2209077370353,66.7179452595301,7.879969206638634,0.0
1657000016.5710468,14046.200316681527,-207.562577590812,98.37058853451163,7.307764513418078,0.0
1657000016.5717628,14351.74266326148,49.90896490868181,283.2992915934883,7.161908415146172,0.0
1657000016.5717628,14346.963071118109,59.318553197197616,242.01266603264958,6.986133117228746,0.0
1657000016.5859888,14160.271005230024,-197.16939561394975,71.29558280529454,6.866456318646669,0.0
1657000016.5859888,14047.062363621313,-204.49959952710196,98.67352043092251,6.885155818425119,0.0
1657000016.58673,14317.285095019732,95.31883017066866,332.82304680673406,8.119322803802788,0.0
1657000016.58673,14362.270481636748,74.48945736745372,267.0886952355504,8.06322430446744,0.0
1657000016.616672,14165.503125268035,-223.82927244808525,43.24633313762024,5.950180829502642,0.0
1657000016.616672,14027.94025514787,-183.63095777435228,121.9843168547377,6.907595218159258,0.0
1657000016.617406,14317.0008626231,101.13811450172216,338.1337047438137,7.012312416918576,0.0
1657000016.617406,14375.793959876522,58.25081175984815,244.31270450539887,8.717706796713173,0.0
1657000016.6181347,14177.485764726065,-253.66619429457933,8.824293945450336,8.02208540495485,0.0
1657000016.6181347,14033.508966181893,-201.556298261974,106.35527493990958,6.675721420906484,0.0
1657000016.6303113,14309.14707271615,123.18482474051416,362.28223875770345,5.909041929990053,0.0
1657000016.6303113,14400.380062185228,13.974136184435338,203.95918398350477,8.751365896314383,0.0
1657000016.6459663,14176.629327636212,-267.99001112487167,-8.745756046380848,6.402708724141121,0.0
1657000016.6459663,14021.178516027983,-185.81879924843088,111.48267777916044,7.4237014120444655,0.0
1657000016.6467128,14317.056961122435,122.54904174804688,342.98435498634353,7.674274709075689,0.0
1657000016.6467128,14390.52916570194,19.284794121515006,204.51642907690257,7.199307414703071,0.0
1657000016.6603303,14180.563702389598,-286.5137356054038,-22.549726782832295,8.250219302251935,0.0
1657000016.6603303,14020.007927341852,-189.96634829929098,107.16683323029429,5.351796836592257,0.0
1657000016.6759808,14318.30982760759,130.82918024994433,363.88291593873873,9.372189288958907,0.0
1657000016.6759808,14412.377661243081,-15.286841068882495,170.6740743778646,7.348903412930667,0.0
1657000016.6767085,14180.705818587914,-293.42507072351873,-40.75555976713076,5.456514035351574,0.0
1657000016.6767085,14019.461901948322,-178.68681003293023,115.84714102745056,7.352643312886357,0.0
1657000016.6903121,14325.419377423357,128.48800287768245,354.86601714557037,5.553751434199512,0.0
1657000016.6903121,14411.150974057615,-9.785448234062642,158.62411672063172,6.6196229215711355,0.0
1657000016.7060144,14187.317961709574,-296.7722811838612,-44.89562901807949,5.164801838807762,0.0
1657000016.7060144,14016.832752279472,-178.3240397372283,127.60164658818394,3.8446171544492245,0.0
1657000016.706752,14327.506241598632,121.56918795965612,350.6399301956408,6.593443621881306,0.0
1657000016.706752,14434.211197184399,-59.8627086407505,117.52261620759964,5.609849933534861,0.0
1657000016.720288,14193.567334535532,-320.7412999998778,-73.90229307441041,8.130542503669858,0.0
1657000016.720288,14017.348858473357,-189.91398969991133,101.62430149596184,8.05948440451175,0.0
1657000016.7359996,14323.336253148038,125.08843381796032,348.3623311226256,8.08192380424589,0.0
1657000016.7359996,14447.891751222312,-56.51175828045234,125.76909560989588,8.321277401410043,0.0
1657000016.7367334,14197.344633490779,-322.0315654845908,-87.88951890869066,8.88600229471922,0.0
1657000016.7367334,14000.897038568277,-157.1300266883336,122.92303174361587,6.002539428882301,0.0
1657000016.7502885,14321.58971986873,133.63410521671176,347.6330506312661,5.826764130964875,0.0
1657000016.7502885,14453.16875005979,-67.14055395452306,77.77121957857162,6.002539428882301,0.0
1657000016.7659717,14192.191051351838,-328.8307036040351,-94.22490943362936,7.176868014968932,0.0
1657000016.7659717,14009.087419471238,-144.81827603420243,115.15525953564793,8.43347440008074,0.0
1657000016.766712,14314.18845785642,160.54268539790064,362.21492055850103,7.22922661434859,0.0
1657000016.766712,14470.065618059598,-79.40742580918595,78.35838387161493,7.449880711734295,0.0
1657000016.7802868,14192.116253352724,-313.42231578659266,-96.53242770629004,9.495605987496674,0.0
1657000016.7802868,13987.915845822077,-129.39118871698156,143.9599689943716,7.472320111468434,0.0
1657000016.7959628,14310.418638701085,172.55524405557662,381.81199632631615,9.24877259042114,0.0
1657000016.7959628,14466.179862005636,-65.37906107539311,106.34405524004251,9.806017683818936,0.0
1657000016.7967107,14198.788234873675,-335.30821032729,-97.49358199490234,6.327910725027323,0.0
1657000016.7967107,13993.51073615579,-131.69122718973085,144.09086549282074,7.726633308455348,0.0
1657000016.8102872,14291.999631419312,190.24871074594557,419.068879684899,6.114736427552998,0.0
1657000016.8102872,14481.124502228573,-106.64137728651986,63.52220074739307,6.301731425337493,0.0
1657000016.8259647,14208.396037859842,-361.89889901224524,-128.10092323226854,7.539638310670853,0.0
1657000016.8259647,13971.381748117972,-108.5861252634786,167.22214671876281,7.408741812221706,0.0
1657000016.8267117,14281.426934244577,226.86607121210545,437.65618246467784,5.924001529812813,0.0
1657000016.8267117,14485.52636447642,-82.76585596939549,79.14376286230981,8.231519802473485,0.0
1657000016.8402934,14224.952574963681,-366.9215846527368,-145.63357422454283,8.530711798928678,0.0
1657000016.8402934,13968.472105952445,-116.59699096856639,151.23781430814415,7.001092717051506,0.0
1657000016.856002,14258.54248641571,263.25903768092394,483.6457322197966,9.847156583331525,0.0
1657000016.856002,14496.611427945085,-105.04817990539595,64.70400913339108,6.133435927331448,0.0
1657000016.856716,14239.87851568684,-407.39852187316865,-179.775120920036,7.461100411601365,0.0
1657000016.856716,13958.501532670576,-96.74560200376436,164.49949955102056,7.580777210183442,0.0
1657000016.870302,14205.809897040483,319.5146128144115,549.6736659375019,5.920261629857123,0.0
1657000016.870302,14491.708419103175,-64.31318958802149,112.57472856622189,6.597183521836996,0.0
1657000016.8859684,14318.255599058233,-494.1193220457062,-266.0022542984225,5.796844931319356,0.0
1657000016.8859684,13955.861163301859,-148.02337029622868,117.91156580299139,4.0390919521451,0.0
1657000016.8867123,14098.227934915107,-522.4733735597692,-300.3625851413235,5.348056936636567,0.0
1657000016.8867123,14476.831097079441,-964.0676706777886,-769.067417038139,6.544824922457337,0.0
1657000016.9002855,14399.998592389748,-581.4946047104895,-334.12079209135845,6.099776827730238,0.0
1657000016.9002855,13979.183179425541,-222.8325891098939,52.64657167624682,6.978653317317367,0.0
1657000016.9159606,14036.119416350964,-461.81219627847895,-238.32138477638364,7.595736810006201,0.0
1657000016.9159606,14452.480608467944,-918.9308181125671,-708.7203913531266,7.277845313772559,0.0
1657000016.9167151,14427.950604658574,-617.4275634847581,-360.8573368745856,6.5822239220142365,0.0
1657000016.9167151,13968.741378749255,-207.16614819550887,39.699038029648364,7.65183530934155,0.0
1657000016.9302871,14019.604018146638,-424.6974291182123,-198.4241320490837,7.6667949091643095,0.0
1657000016.9302871,14461.015060166828,63.243578200694174,271.81966867949814,7.756552508100867,0.0
1657000016.9623306,14421.536676234566,371.9797993428074,640.6972210090607,7.311504413373768,0.0
1657000016.9623306,13968.012098257896,781.8522650366649,1064.0482861432247,7.0646710162982345,0.0
1657000016.9630861,14030.894776112866,535.2432619584724,783.0957817719318,8.583070398308337,0.0
1657000016.9630861,14476.135475687683,1021.157243501395,1241.551417840179,6.002539428882301,0.0
1657000016.9638336,14388.861170321703,1389.982437231578,1657.159020116087,4.903008841909468,0.0
1657000016.9638336,13955.917261801194,1805.419874059502,2092.9115935033187,6.787918419577181,0.0
1657000016.9645844,14078.937530943658,1468.3539107530378,1722.0743335969746,3.668841856531799,0.0
1657000016.9645844,14498.230804625899,1931.9855683599599,2141.7210278250277,6.978653317317367,0.0
1657000016.975309,14321.51305191964,1444.0800900906324,1704.5061535551213,6.402708724141121,0.0
1657000016.975309,13945.91676931968,1859.2856531213038,2156.9087615450844,7.23296651430428,0.0
1657000016.9903963,14190.177115225699,2316.740865951404,2571.0783722880296,8.388595600612462,0.0
1657000016.9903963,14554.621016157791,2772.451415452175,2973.031599825714,9.110396292060614,0.0
1657000017.0059872,14202.53187472932,2546.3426739810966,2807.378341138363,7.001092717051506,0.0
1657000017.0059872,13910.746750136372,2960.2130927275866,3260.925358514767,7.63687570951879,0.0
1657000017.00673,14307.288342438173,3181.8040350521915,3438.5500369602814,6.679461320862174,0.0
1657000017.00673,14568.645640991628,3652.1749923792668,3836.288397247903,7.606956509873271,0.0
1657000017.0203304,14157.641855561174,3576.406489226967,3825.5717139248736,7.491019611246884,0.0
1657000017.0203304,13897.896453888621,3972.067335089203,4277.547973319888,8.138022303581238,0.0
1657000017.0359805,14266.227980824653,4194.570813002996,4441.5070573273115,6.398968824185431,0.0
1657000017.0359805,14546.243640257046,3716.576069616247,4894.674474858213,5.3742362363263965,0.0
1657000017.0367293,14998.859422544483,3760.3403788977303,5001.164386196528,4.873089642263949,0.0
1657000017.0367293,14686.718022492714,3274.497455453966,4609.080754641909,6.9001154182478786,0.0
1657000017.0503445,15124.637867904268,3444.6273743882775,4748.105925644748,7.756552508100867,0.0
1657000017.0503445,15446.910656936001,3868.765688463114,5127.328041251749,5.755706031806767,0.0
1657000017.0659964,14964.927310246509,3826.12147921836,5145.492735336535,6.301731425337493,0.0
1657000017.0659964,14758.79337443877,4226.505818724632,5619.706439868081,6.42888802383095,0.0
1657000017.0667484,14353.607003389392,4174.629666439258,5517.356597780716,6.7430396201089025,0.0
1657000017.0667484,14635.32805720158,4543.840069864877,5799.113180642482,7.842570207081735,0.0
1657000017.0803354,15059.501900325995,4614.5877573266625,5914.724707972724,6.589703721925616,0.0
1657000017.0803354,14769.523147411644,4148.745818845928,5508.642630883958,7.603216609917581,0.0
1657000017.0960104,14320.47896958189,4199.109181599226,5520.354127595201,8.579330498352647,0.0
1657000017.0960104,14571.947972652502,4604.443278696854,5852.614319458604,7.367602912709117,0.0
1657000017.096738,14136.42166321259,4586.587126358412,5889.732826518826,6.271812225691974,0.0
1657000017.096738,13927.606219136622,4949.318153110798,6296.740528846625,6.638322421349585,0.0
1657000017.1267192,13469.227251017466,4949.899707553908,6237.141483152751,9.020638693124056,0.0
1657000017.1267192,13702.303426105995,5387.475482169539,6564.925014769193,5.119923039339483,0.0
1657000017.1274436,14126.256615133025,5510.91462010704,6735.419573949184,8.05200460460037,0.0
1657000017.1274436,13891.57228306355,5936.827516710851,6264.554949827958,7.891188906505704,0.0
1657000017.1282115,14350.51036622608,6046.389755862765,6324.144645771943,6.604663321748376,0.0
1657000017.1282115,14669.353666998446,6436.068631745875,6624.970978507772,7.191827614791691,0.0
1657000017.1403604,14239.093136696145,6359.9223986980505,6596.040982400533,7.390042312443256,0.0
1657000017.1403604,13919.46071703313,5872.568555672187,6162.403322438244,4.955367441289127,0.0
1657000017.172387,14164.390505031217,6291.188647362404,6535.800543864258,8.366156200878322,0.0
1657000017.172387,14570.807303166017,6676.417042298242,6878.158465608023,4.177468250505626,0.0
1657000017.1731138,14369.608165349811,6258.9301402946,6506.720951758791,9.454467087984085,0.0
1657000017.1731138,13990.67215208942,6699.593202323653,6979.1133250119165,6.44384762365371,0.0
1657000017.173862,14089.506488218438,6349.882637267001,6579.564853145741,6.077337427996099,0.0
1657000017.173862,14545.521839565597,6721.127546268515,6924.103136563674,7.846310107037425,0.0
1657000017.1746116,14376.500800968148,6268.399566982407,6513.172279182356,8.799984595738351,0.0
1657000017.1746116,13971.74825831363,6723.072294245474,6999.428461571224,10.808310871943831,0.0
1657000017.1853454,14061.65171334846,6367.796758054756,6601.880836181343,6.02123892866075,0.0
1657000017.1853454,14537.297799563035,6711.381366983987,6904.943629090674,6.215713726356626,0.0
1657000017.2010107,-343.4144434812479,387.67241955688223,634.4197989334352,6.744909570086747,0.0
1657000017.2017293,-761.4174516787753,854.5447004754096,165.1670716931112,7.107679865788668,0.0
1657000017.2017293,-666.00886390917,537.0870326366276,-194.35699084727094,8.341846851166338,0.0
1657000017.2153287,-1099.9868547674268,815.982592032291,43.99057322880253,7.070280866231769,0.0
1657000017.2153287,-1308.6994515946135,380.8583218376152,-349.07478206418455,8.543801448773593,0.0
1657000017.2309794,-1712.6292162588798,-98.05082708830014,-795.6674554729834,6.404578674118966,0.0
1657000017.2309794,-1613.0207208390348,-473.7200377373956,-1215.6657002968714,6.737429770175368,0.0
1657000017.2317278,-2091.0098543758504,-192.89842986455187,-974.9208603492007,8.532581748906523,0.0
1657000017.2317278,-2296.62207413977,-596.2784292353317,-1329.2782511007972,5.888472480233759,0.0
1657000017.245328,-2728.874101168476,-1062.3896405128762,-1753.1959110782482,6.038068478461355,0.0
1657000017.245328,-2621.56141183991,-1421.543452957645,-2145.1748254341073,4.9310580915771425,0.0
1657000017.2610652,-3051.4741314463317,-1190.1595825990662,-1957.16631476162,8.289488251786679,0.0
1657000017.2610652,-3280.0007182387635,-1569.5107247545384,-2297.2784265819937,8.24834935227409,0.0
1657000017.2618127,-3702.936654477846,-2011.196649421472,-2717.646921501495,5.566841084044427,0.0
1657000017.2618127,-3569.4035265599377,-2441.3188034254126,-3162.743634928018,9.632112335879356,0.0
1657000017.2753727,-4007.0353996749036,-2233.870292783249,-3009.2282215468585,6.599053471814841,0.0
1657000017.2753727,-4252.8552838624455,-2587.5657212426886,-3330.7418108875863,6.198884176556021,0.0
1657000017.3074045,-4680.361377847381,-3008.8205724516883,-3714.8332762368955,5.548141584265977,0.0
1657000017.3074045,-4549.7266723951325,-3417.7075745072216,-4148.261501801666,9.164624841418117,0.0
1657000017.30813,-4960.304109230638,-3257.2284674085677,-4046.2482507103123,6.202624076511711,0.0
1657000017.30813,-5228.305340055376,-3587.179271049332,-4345.875945510343,7.361993062775582,0.0
1657000017.3088791,-5682.233827227261,-3968.3349149334244,-4676.815952689387,9.418938038405031,0.0
1657000017.3088791,-5540.517798206303,-4397.234121651854,-5133.330580680631,6.595313571859151,0.0
1657000017.3096352,-5941.412634056527,-4238.093898737337,-5027.405394235626,7.02540206676349,0.0
1657000017.3096352,-6201.515196174849,-4569.944571555592,-5327.646432628389,6.363439774606377,0.0
1657000017.320307,-6688.79237125162,-4937.479499801062,-5641.614773808513,4.418691797647625,0.0
1657000017.320307,-6542.584722383879,-5363.775736150332,-6095.118782335427,6.557914572302252,0.0
1657000017.3353052,-6884.134825737216,-5247.659322326072,-6034.80167585006,7.85939975688234,0.0
1657000017.3353052,-7176.134994577616,-5566.663438796531,-6326.08191394899,7.335813763085753,0.0
1657000017.3509805,-6693.388708297163,-5900.404631042387,-6618.50843138434,5.809934581164271,0.0
1657000017.3509805,-6545.509324149229,-6318.069178293925,-7074.940781576559,6.5392150725238025,0.0
1657000017.351729,-6888.6601046836,-6233.016373501625,-7031.019396496937,5.189111188519746,0.0
1657000017.351729,-7150.748553678393,-6556.930978613906,-7328.44055032311,5.510742584709078,0.0
1657000017.365305,-6703.7332715746015,-6869.5903548095375,-7596.079010852147,8.080053854268044,0.0
1657000017.365305,-6569.781274861656,-7261.677726264112,-8015.796763179358,6.808487869333476,0.0
1657000017.380975,-6860.969885411672,-7224.230108007789,-8017.1431271634065,7.765902257990092,0.0
1657000017.380975,-7156.115310114808,-7558.182604601141,-8317.967589949258,7.335813763085753,0.0
1657000017.3817244,-6720.517942575738,-7849.135601453949,-8585.018886185251,5.5331819844432175,0.0
1657000017.3817244,-6578.7495549554005,-8232.292091814335,-8978.018793229014,7.3844324625097215,0.0
1657000017.3953092,-6853.6583809982985,-8203.180710559245,-8990.379162582569,8.502662549261004,0.0
1657000017.3953092,-7142.05702618137,-8555.903765030205,-9316.30583387101,8.22217005258426,0.0
1657000017.4109805,-6734.430370410904,-8796.139978583902,-9521.196252943482,8.046394754666835,0.0
1657000017.4109805,-6616.28693081066,-9193.807280772366,-9941.183278067503,7.186217764858156,0.0
1657000017.4117308,-6834.128623429686,-9204.069566250779,-9986.944693925325,5.4920430849306285,0.0
1657000017.4117308,-7122.564667612314,-9548.508742319886,-10304.452850413509,6.905725268181413,0.0
1657000017.4416823,-6743.922236498445,-9777.401839307975,-10492.02379279118,5.596760283689946,0.0
1657000017.4416823,-6618.078342889436,-10169.085301567335,-10905.4697328927,4.310234698932618,0.0
1657000017.442433,-6823.477388355881,-10192.71772938734,-10988.858282204717,6.25498267589137,0.0
1657000017.442433,-7124.614132788032,-10544.561907368712,-11314.81113279285,4.822600992862135,0.0
1657000017.443179,-6770.576503482647,-10730.790225662291,-11440.961698198225,6.053028078284115,0.0
1657000017.443179,-6639.691224733368,-11107.738482096232,-11852.26841552509,5.061954590026289,0.0
1657000017.4553795,-6812.108092490584,-11172.004922934808,-11958.096364571247,8.390465550590307,0.0
1657000017.4553795,-7115.286822298542,-11529.451471049804,-12294.838826531544,7.470450161490589,0.0
1657000017.4710295,-6778.879081384279,-11715.851824741345,-12439.415879018605,7.231096564326435,0.0
1657000017.4710295,-6641.381659513339,-12079.822628329042,-12824.954685650766,7.878099256660789,0.0
1657000017.4717598,-6801.92434491124,-12159.908845980186,-12950.181495767087,4.534628696274012,0.0
1657000017.4717598,-7104.209238629788,-12520.553008557297,-13273.26958298916,4.508449396584183,0.0
1657000017.4853437,-6787.9408589769155,-12680.190638165921,-13391.274646291044,9.942524032201618,0.0
1657000017.4853437,-6661.147030779161,-13057.07157640066,-13795.00432630768,5.675298182759434,0.0
1657000017.5010695,-6786.781489990652,-13159.724350384437,-13937.610451518092,6.875806068535894,0.0
1657000017.5010695,-7106.7860296992585,-13498.650913918857,-14254.239731516689,9.45633703796193,0.0
1657000017.5018108,-6800.701397625729,-13658.920586619992,-14370.733875236474,6.958083867561072,0.0
1657000017.5018108,-6671.158742960542,-14024.275153191295,-14749.563301348127,8.27826855191961,0.0
1657000017.5153852,-6780.416180266067,-14128.14339466067,-14887.348695515655,5.1704116887412965,0.0
1657000017.5153852,-7102.956372144632,-14498.37666072417,-15245.184193226043,6.101646777708083,0.0
1657000017.5310602,-6812.983229080215,-14618.681762498803,-15322.521584409755,6.696290870662779,0.0
1657000017.5310602,-6675.6802820069715,-14997.866479106247,-15716.460206342395,6.9805232672952116,0.0
1657000017.531811,-6776.3621287140995,-15127.599868669175,-15896.412972510327,8.24834935227409,0.0
1657000017.531811,-7093.139134760946,-15477.409541074652,-16222.201267500408,8.491442849393934,0.0
1657000017.5453837,-6811.778981294483,-15596.024208069313,-16295.563145031221,7.294674863573164,0.0
1657000017.5453837,-6683.754726011306,-15963.08416902041,-16680.87007786613,9.231943040620536,0.0
1657000017.5610805,-6761.866276485845,-16112.033164555673,-16883.01915027108,7.193697564769536,0.0
1657000017.5610805,-7087.7424591248855,-16477.51301777549,-17231.190746495966,10.039761431049556,0.0
1657000017.5618112,-6824.318865845911,-16554.917727158405,-17265.567906888667,7.313374363351613,0.0
1657000017.5618112,-6693.418627496809,-16925.358557669446,-17651.20021101972,7.283455163706094,0.0
1657000017.5754073,-6758.07027803082,-17082.928022602573,-17845.97420071205,8.412904950324446,0.0
1657000017.5754073,-7081.732439896092,-17431.742881619837,-18176.635585344397,6.7823085696436465,0.0
1657000017.591066,-6825.298719634302,-17545.73877216922,-18259.104119267315,5.151712188962847,0.0
1657000017.591066,-6701.904460496269,-17895.65877162339,-18622.663533859886,8.887872244697064,0.0
1657000017.5918095,-6741.94008952193,-18089.15745543083,-18849.873675867915,7.100200065877289,0.0
1657000017.5918095,-7075.901935865171,-18429.748274445534,-19171.88467190275,5.8548133806325495,0.0
1657000017.60538,-6836.768992798403,-18500.421163908206,-19209.1191158616,6.771088869776577,0.0
1657000017.60538,-6701.653887199238,-18895.152644631453,-19611.44633339485,5.780015381518751,0.0
1657000017.6210284,-6741.753094524145,-19071.33559164405,-19838.30118490709,5.518222384620458,0.0
1657000017.6210284,-7073.399942794815,-19416.762101301458,-20171.169110513292,7.477929961401969,0.0
1657000017.6217597,-6845.408161696047,-19484.446810699534,-20197.28857180383,7.552727960515767,0.0
1657000017.6217597,-6717.316588213667,-19857.1390609839,-20578.556412686594,6.210103876423091,0.0
1657000017.6353588,-6726.913171499968,-20070.275959458668,-20823.49742038455,5.394805686082691,0.0
1657000017.6353588,-7072.378950106911,-20414.591718829237,-21158.025861571077,6.531735272612423,0.0
1657000017.6510332,-6842.756572627462,-20471.12030665949,-21176.590724951122,9.531135037075728,0.0
1657000017.6510332,-6701.6838063988835,-20875.938297563232,-21595.39220178919,8.719576746691018,0.0
1657000017.6517696,-6730.74656895455,-21051.115211487748,-21809.643590450753,6.965563667472452,0.0
1657000017.6517696,-7071.084944722243,-21382.722790808883,-22139.06332829781,8.596160048153251,0.0
1657000017.6817696,-6859.316849631257,-21420.551878860686,-22127.940865829587,5.83985378080979,0.0
1657000017.6817696,-6707.215118433349,-21852.59634144185,-22565.99160773959,6.696290870662779,0.0
1657000017.6824892,-6723.5734408395365,-22041.891377699096,-22812.129383423366,8.611119647976011,0.0
1657000017.6824892,-7072.248053608462,-22380.776802334003,-23128.92695891997,8.958930343855172,0.0
1657000017.6832733,-6851.814610320143,-22426.257725695148,-23128.332314827014,8.020215454977006,0.0
1657000017.6832733,-6692.206899911165,-22829.347882819362,-23561.81663889112,6.572874172125012,0.0
1657000017.6953604,-6712.312602072954,-23021.881672438234,-23792.47870855825,8.435344350058585,0.0
1657000017.6953604,-7062.681389521807,-23365.946858511772,-24122.11162070278,9.47503653774038,0.0
1657000017.727379,-6852.2110397154465,-23392.025180902798,-24096.79249800276,9.347879939246923,0.0
1657000017.727379,-6681.933394732885,-23808.160109072458,-24540.40073124692,3.984863402787596,0.0
1657000017.7281132,-6660.866538282484,-24018.61175937904,-24795.663862822577,6.65515197115019,0.0
1657000017.7281132,-7046.78307481017,-24343.667033977807,-25102.23281194037,8.293228151742369,0.0
1657000017.7288613,-6863.733671478927,-24378.661277863197,-25083.525832362007,8.6522585474886,0.0
1657000017.7288613,-6703.426599778235,-24799.49726027716,-25527.904484997038,8.042654854711145,0.0
1657000017.72961,-6706.687792539597,-25017.410010995343,-25785.658389943186,4.392512497957796,0.0
1657000017.72961,-7089.844282899983,-25319.412542267237,-26087.889055112377,7.354513262864202,0.0
1657000017.7403588,-6882.264875759371,-25359.537928891834,-26072.237573797815,5.002116190735251,0.0
1657000017.7403588,-6726.703737102449,-25779.83162581222,-26520.87971238233,7.100200065877289,0.0
1657000017.7553353,-6727.051547798328,-25978.99625805253,-26759.50028915517,6.109126577619463,0.0
1657000017.7553353,-7106.842128198594,-26300.651963591576,-27072.50934599666,8.083793754223734,0.0
1657000017.77103,-6892.953509832732,-26330.814256734215,-27054.393270611297,9.06738744257018,0.0
1657000017.77103,-6749.902336527593,-26722.393001794815,-27456.013647052925,4.946017691399902,0.0
1657000017.771762,-6719.111740192398,-26946.181135343388,-27717.477532755118,5.6565986829809844,0.0
1657000017.771762,-7103.02743024379,-27252.746344561223,-28009.767543842085,4.542108496185392,0.0
1657000017.7853982,-6900.590385542251,-27283.061973602045,-27986.56894441694,6.516775672789663,0.0
1657000017.7853982,-6725.821120712906,-27722.99388518976,-28449.18708913587,6.296121575403959,0.0
1657000017.8010488,-6716.89771941863,-27922.225835629273,-28685.94893563073,7.795821457635611,0.0
1657000017.8010488,-7097.226845412515,-28226.345150276087,-28983.231713158544,7.1824778649024665,0.0
1657000017.8017678,-6894.318573316559,-28257.894946302287,-28965.957115263212,9.134705641772598,0.0
1657000017.8017678,-6717.230570514686,-28705.37023610063,-29430.280654361937,5.230250088032335,0.0
1657000017.8153293,-6706.553156141192,-28904.183317745104,-29667.87275864696,7.672404759097844,0.0
1657000017.8153293,-7098.072062802501,-29198.98280170234,-29951.863931732252,6.744909570086747,0.0
1657000017.831006,-6897.190816482529,-29240.297476512846,-29929.663885595277,6.744909570086747,0.0
1657000017.831006,-6717.148292715661,-29699.71800676966,-30419.71793638915,7.1824778649024665,0.0
1657000017.8317533,-6694.974425878376,-29897.38293912774,-30665.85945197288,7.653705259319395,0.0
1657000017.8317533,-7101.10138176661,-30179.504162235186,-30932.059920968954,6.756129269953817,0.0
1657000017.8453732,-6902.464075420052,-30208.731480388902,-30910.697612422053,7.631265859585255,0.0
1657000017.8453732,-6697.906507443637,-30688.085677409545,-30435.754627399147,6.284901875536889,0.0
1657000017.8610327,-6679.5772577608,-30876.456958377734,-30664.47194908932,4.542108496185392,0.0
1657000017.8610327,-7098.057103202678,-31177.93590365583,-30948.941829368938,10.402531726751477,0.0
1657000017.8617625,-6893.379858427681,-31194.30918566184,-30917.967977935914,6.946864167694002,0.0
1657000017.8617625,-6705.031016859226,-31672.285229548812,-30430.862838257104,7.5863870601169765,0.0
1657000017.8753402,-6689.73856594041,-31885.754979119636,-30691.294511571527,5.600500183645636,0.0
1657000017.8753402,-7104.912339821458,-32142.577648976818,-30937.254642007407,6.045548278372735,0.0
1657000017.8910499,-6907.303505962715,-32136.653647447005,-30885.812318116892,6.490596373099834,0.0
1657000017.8910499,-6703.632294275798,-31678.149392679334,-30430.97877515573,4.358853398356587,0.0
1657000017.8918097,-6672.4452685453,-31835.913332410157,-30641.74457705859,4.456090797204524,0.0
1657000017.8918097,-7108.96265147347,-32087.6833974272,-30876.49622732727,8.64851864753291,0.0
1657000017.9053848,-6908.982721042819,-32093.805613654666,-30834.448532125447,7.141338965389878,0.0
1657000017.9053848,-6697.798050344922,-31609.87377908826,-30369.82393108029,6.053028078284115,0.0
1657000017.9210176,-6670.448161968961,-31764.339127058163,-30563.81628168188,9.796667933929712,0.0
1657000017.9210176,-7110.2716164579615,-32039.4386879988,-30823.804776851553,7.534028460737318,0.0
1657000017.921764,-6911.04714581836,-32046.21538671851,-30774.74850913277,4.927318191621453,0.0
1657000017.921764,-6693.732779093087,-31585.497111177072,-30313.407540248707,8.861692945007235,0.0
1657000017.935336,-6663.649023849517,-31786.56535249483,-30542.65218783263,6.9019853682257235,0.0
1657000017.935336,-7116.259196287021,-32046.566937314346,-30785.986908499617,7.750942658167332,0.0
1657000017.951059,-6914.031585983001,-32087.60485952813,-30766.195357934106,3.42387840943411,0.0
1657000017.951059,-6692.7342258049175,-31639.86777673289,-30332.409971923567,4.800161593127996,0.0
1657000017.9518087,-6653.296980772167,-31839.144605971873,-30572.178697982803,11.023355119396001,0.0
1657000017.9518087,-7123.667938099243,-32091.894524777308,-30818.12386881886,6.565394372213632,0.0
1657000017.9653392,-6927.09131662827,-32119.603443549015,-30797.068232068326,5.697737582493573,0.0
1657000017.9653392,-6687.883575562388,-31662.172540068626,-30381.948686736636,7.492889561224729,0.0
1657000018.0130377,-6652.623798780143,-31873.809738661163,-30634.851941440254,7.6649249591864645,0.0
1657000018.0130377,-7127.14978495799,-32120.123289642856,-30883.32528464636,8.64851864753291,0.0
1657000018.0137832,-6934.372901841998,-32139.073362718336,-30862.666077291127,7.05158136645332,0.0
1657000018.0137832,-6687.3076309692115,-31702.817772787064,-30431.76041424647,7.713543658610433,0.0
1657000018.0145607,-6647.6272924393415,-31907.90266665723,-30693.691787443124,7.900538656394929,0.0
1657000018.0145607,-7131.27115470916,-32130.22101952322,-30915.267770167906,6.262462475802749,0.0
1657000018.0152855,-6953.326714817435,-32144.41393985506,-30875.441575539764,8.487702949438244,0.0
1657000018.0152855,-6681.514525937848,-31730.964259853587,-30485.521476109512,6.0979068777523935,0.0
1657000018.0260334,-6641.78930860851,-31909.83993483428,-30717.57478856016,7.081500566098839,0.0
1657000018.0260334,-7127.830446749926,-32139.65304721147,-30936.252348819282,6.438237773720175,0.0
1657000018.0267837,-6957.0666147731245,-32122.258772517554,-30880.27726618247,7.941677555907518,0.0
1657000018.0267837,-6666.670863013715,-31731.540204446763,-30500.245462235063,7.43679106188938,0.0
1657000018.0410311,-6619.398527573794,-31919.945144514553,-30723.229517293163,5.604240083601326,0.0
1657000018.0410311,-6148.7900865995325,-32135.314763262868,-30939.700536578428,5.43220468563959,0.0
1657000018.0417817,-5972.577220387291,-32137.90651393216,-30885.96191411512,8.338106951210648,0.0
1657000018.0417817,-5672.420329743531,-31746.238011272624,-30516.218574945815,7.261015763971955,0.0
1657000018.0553799,-5637.141853461508,-31928.202843616717,-30731.749009392224,7.152558665256947,0.0
1657000018.0553799,-5171.507479428314,-32156.36292021349,-30952.502214126755,9.46007693791762,0.0
1657000018.071062,-5012.172781716101,-32129.009291937575,-30889.724253470544,7.85939975688234,0.0
1657000018.071062,-4689.340877640992,-31743.94171269983,-30525.441168236546,8.584940348286182,0.0
1657000018.0717866,-4647.551235536113,-31943.356918237172,-30763.497020116076,7.388172362465411,0.0
1657000018.0717866,-4199.471951894928,-32145.03850314766,-30954.705015200656,5.03203539038077,0.0
1657000018.085372,-4024.893421963323,-32146.57560202945,-30913.506277288776,6.718730270396918,0.0
1657000018.085372,-3707.446973824408,-31767.009415626526,-30543.957412917167,6.703770670574158,0.0
1657000018.117438,-3649.8038958073594,-31950.44028875325,-30768.73288005404,6.281161975581199,0.0
1657000018.117438,-3218.3933462686837,-32154.208737839013,-30975.375442255754,5.858553280588239,0.0
1657000018.118158,-3056.695031784475,-32130.093862924725,-30891.467046849895,9.549834536854178,0.0
1657000018.118158,-2721.663574053906,-31760.935818098485,-30547.33828247711,10.27537512825802,0.0
1657000018.1189067,-2668.706590681337,-31959.804998242296,-30786.68813974131,5.798714881297201,0.0
1657000018.1189067,-2249.274940700736,-32151.441211871803,-30963.774272593204,5.469603685196489,0.0
1657000018.1196575,-2078.372732425574,-32124.876702486537,-30900.102475847583,6.4195382739417255,0.0
1657000018.1196575,-1721.79197115032,-31795.76924628578,-30584.7971204333,5.256429387722164,0.0
1657000018.1461148,-1669.9906168640591,-31990.37120058015,-30813.136712227948,5.806194681208581,0.0
1657000018.1461148,-1256.8008599095047,-32174.284520801157,-30988.88022099575,7.904278556350619,0.0
1657000018.1468272,-1076.3918259469792,-32140.513224201277,-30909.186692839954,7.05158136645332,0.0
1657000018.1468272,-726.5017456924543,-31848.44947706163,-30617.97003304027,6.483116573188454,0.0
1657000018.1610694,-681.9520574202761,-31996.665452205576,-30831.88483070582,5.761315881740302,0.0
1657000018.1610694,-288.1910807355307,-32187.96507483907,-31032.28175998153,6.7411696701310575,0.0
1657000018.1617863,-137.27863772353157,-32149.60492099356,-30928.996942905243,5.256429387722164,0.0
1657000018.1617863,245.6534586395137,-31844.507622508332,-30636.91262631584,7.552727960515767,0.0
1657000018.1753588,293.59149627154693,-32013.689476803876,-30860.453926467337,8.469003449659795,0.0
1657000018.1753588,697.7194756334648,-32185.018033673987,-31043.714634146076,5.469603685196489,0.0
1657000018.1910331,855.0533268693835,-32145.801442738622,-30933.50352235185,4.912358591798693,0.0
1657000018.1910331,1244.5526875546202,-31851.82286682166,-30644.093234230764,4.433651397470385,0.0
1657000018.191779,1278.5446382518858,-32009.79998084996,-30861.946146549657,5.3723662863485515,0.0
1657000018.191779,1687.081959661562,-32215.812369909137,-31051.695580651518,6.584093871992081,0.0
1657000018.2060287,-136.00894168857485,206.73792965058237,431.2329042907804,7.999646005220711,0.0
1657000018.2067776,241.1113501433283,533.5210380288772,744.1447237334214,8.665348197333515,0.0
1657000018.2067776,285.5750207165256,378.1281948699616,552.3439545058645,8.369896100834012,0.0
1657000018.2367156,704.8608145988546,151.23033450823277,330.03121148981154,7.790211607702076,0.0
1657000018.2367156,842.3918955693953,207.08200044650584,434.3108419543132,6.526125422678888,0.0
1657000018.237435,1224.703168539796,556.5850010556169,763.4687868044712,5.550011534243822,0.0
1657000018.237435,1270.2027914007194,400.0701879099943,568.9528502090834,6.8627164186909795,0.0
1657000018.2381856,1687.5363575061783,135.5788531936705,309.46550163347274,6.974913417361677,0.0
1657000018.2381856,1814.1731099057943,196.92817206680775,420.39841411914676,7.479799911379814,0.0
1657000018.250384,2209.1439442262053,539.6170749566518,748.1277171862312,8.05948440451175,0.0
1657000018.250384,2252.5716625116765,390.6419001217,554.0643084854819,8.138022303581238,0.0
1657000018.2824402,2657.1559096681885,149.02753343433142,321.7922118874267,7.835090407170355,0.0
1657000018.2824402,2788.718110309448,208.66023822780699,437.3962594177574,6.402708724141121,0.0
1657000018.2831385,3194.8039272981696,540.940999540966,753.9769207169302,5.0900038396939635,0.0
1657000018.2831385,3241.9827652391978,377.84770237328485,543.4392527113669,6.971173517405987,0.0
1657000018.2838786,3641.895877351053,164.3760828524828,329.1859940998256,6.152135427109897,0.0
1657000018.2838786,3761.0154308397323,225.31401273049414,461.41763683315367,9.390888788737357,0.0
1657000018.2846332,4179.865526377223,543.3345355126075,766.5729037676938,8.42599460016936,0.0
1657000018.2846332,4223.951467054896,384.51594399427995,556.5812611556612,8.702747196890414,0.0
1657000018.2953093,4610.726310622413,167.6335357138887,341.88669434934855,6.357829924672842,0.0
1657000018.2953093,4719.250727536622,261.14973410591483,483.9654936660081,9.65268178563565,0.0
1657000018.3103125,5159.975497914944,551.1883254195563,777.7514647352509,6.959953817538917,0.0
1657000018.3103125,5209.375836429652,378.7190990629606,560.635312707629,10.527818375267088,0.0
1657000018.3260553,5577.398821619339,184.9754518084228,365.14887207373977,8.366156200878322,0.0
1657000018.3260553,5683.331487864256,278.22985720355064,512.6393066262826,8.568110798485577,0.0
1657000018.3267777,6146.869647972286,567.0455012316816,785.9194062384777,5.8566833306103945,0.0
1657000018.3267777,6191.838205039501,392.51932989945635,571.0509340842254,5.5761908339336514,0.0
1657000018.3403025,6552.523506516125,181.18319325335324,367.6583449440077,7.700454008765519,0.0
1657000018.3403025,6646.798904599156,303.0627929093316,536.6868633413687,7.6331358095631,0.0
1657000018.3560283,7125.99602582166,566.4994758381508,791.4881172725,5.407895335927606,0.0
1657000018.3560283,7182.921043047216,386.0455630761571,571.5782599779777,6.918814918026328,0.0
1657000018.3567772,7521.641912084073,200.85506702028215,386.1521502248943,9.200153890997171,0.0
1657000018.3567772,7626.710661439225,323.72200026456267,568.909841359593,7.158168515190482,0.0
1657000018.3703034,8109.311091621406,593.2883792207576,829.1451699263416,5.471473635174334,0.0
1657000018.3703034,8163.853792575188,416.53322751494125,614.112142174039,7.296544813551009,0.0
1657000018.3860693,8511.87205290189,222.78958026040345,421.1950128097087,8.979499793611467,0.0
1657000018.3860693,8595.638332109433,375.4784757513553,623.0112341186032,4.992766440846026,0.0
1657000018.3867924,8118.989952706732,610.8733888124116,854.8308028220199,9.342270089313388,0.0
1657000018.3867924,8163.016054985113,424.0392067260109,635.410872421693,7.876229306682944,0.0
1657000018.4003122,8502.043595818337,242.01640593260527,427.8782140305266,7.812651007436216,0.0
1657000018.4003122,8594.766935419757,372.0602071918547,640.9627539059147,7.9472874058410525,0.0
1657000018.4160411,8108.806205127388,672.2189677855931,932.4225072027184,6.346610224805772,0.0
1657000018.4160411,8165.671383953653,469.81558218365535,684.9795064344071,4.233566749840975,0.0
1657000018.4167843,8501.321795126889,263.44229277875274,480.7005610046908,7.865009606815875,0.0
1657000018.4167843,8581.17613898078,416.83802936133,691.8253933032975,8.45591379981488,0.0
1657000018.430306,8115.220133551396,691.9768592515029,957.3526803073473,6.084817227907479,0.0
1657000018.430306,8161.80432739947,510.5580523009412,747.7612069905736,8.01460560504347,0.0
1657000018.4461112,8509.284042132553,318.09719073120505,555.6518960166723,3.8408772544935346,0.0
1657000018.4461112,8578.042102817912,481.87862949073315,773.7179826330394,4.360723348334432,0.0
1657000018.4468365,8113.645635670051,736.4928884240799,1024.7419376089238,7.083370516076684,0.0
1657000018.4468365,8165.054300460964,537.1412611859851,783.9896178613417,7.9098884062841535,0.0
1657000018.4603412,8508.954930936452,340.76846426259726,584.0190371805802,7.891188906505704,0.0
1657000018.4603412,8570.386527608614,502.36580144800246,803.0238386858255,6.42514812387526,0.0
1657000018.476052,8127.060656811111,753.2177210259251,1056.9424762274139,6.8627164186909795,0.0
1657000018.476052,8184.026812936179,541.1205147388391,807.274234985467,8.44095419999212,0.0
1657000018.4767857,8513.270775485318,330.7043934818357,594.3187216585502,7.928587906062603,0.0
1657000018.4767857,8568.303403333295,501.6066017569974,826.8694408033043,7.726633308455348,0.0
1657000018.4903593,8119.08719010558,753.9694409170188,1069.5048001785763,6.956213917583227,0.0
1657000018.4903593,8183.798679038882,958.6653851917945,1239.599190063309,7.524678710848093,0.0
1657000018.506042,8502.189451916609,475.1056706709787,810.2680248999968,2.688988068141043,0.0
1657000018.506042,8569.100002023857,376.69207328697667,860.883830900304,2.7899653669446707,0.0
1657000018.5067856,8125.037370935082,231.84574800310656,839.6823380514979,0.49366679415106773,0.0
1657000018.5067856,8178.813392397948,448.21765993954614,1131.6899866918102,1.245386685244739,0.0
1657000018.5204084,8501.071221829858,529.1116959811188,1349.1539494153112,-7.532158510759473,0.0
1657000018.5204084,8555.655061683152,950.3889865898527,982.080898814369,-9.383408988825977,0.0
1657000018.5360606,8126.716586015187,1319.8406135626137,1470.4800438778475,-10.692373973317444,0.0
1657000018.5360606,8174.0151007547975,1161.5605676379055,1381.4704249324277,-6.384009224362671,0.0
1657000018.5367856,8493.236131422687,930.5862163244747,1250.295303936582,-11.444093864411116,0.0
1657000018.5367856,8542.341017840896,1068.083638195414,1522.8218137077056,-14.682847226038575,0.0
1657000018.5504124,8116.5702374354005,1188.125077023171,1711.4343182230368,-9.312350889667869,0.0
1657000018.5504124,8175.028613642789,930.7040231730789,1453.0521100843325,-6.398968824185431,0.0
1657000018.566044,8503.816308397334,638.6384060834534,1193.527362509165,-6.518645622767508,0.0
1657000018.566044,8553.463480309118,775.2606913647614,1422.267123599071,-11.29449786618352,0.0
1657000018.566785,8152.824827605858,930.4945887755603,1615.3600282613188,-4.637475945055485,0.0
1657000018.566785,8196.525558588095,655.118275238201,1305.2176047358662,-1.3501038840040565,0.0
1657000018.580364,8523.402164465282,345.9613153510727,1004.2697252514772,-5.4116352358832955,0.0
1657000018.580364,8555.557824284304,436.87828327389434,1156.8539035436697,-3.6501423567533493,0.0
1657000018.5960324,8126.024704523385,574.9722191877663,1297.1693400312215,0.2655328968539834,0.0
1657000018.5960324,8181.188228869811,267.26447053346783,955.5406987788156,-1.529619081877172,0.0
1657000018.5967734,8510.989436512347,-46.94509419379756,630.9267323748209,-1.043432087637484,0.0
1657000018.5967734,8552.244272923563,97.1382914991118,832.7728728833608,-2.745086567476392,0.0
1657000018.6103547,8138.3027960779145,259.2984836278483,982.6175744580105,0.19821469765156507,0.0
1657000018.6103547,8186.233353910036,-13.878768735565245,650.8996680881828,6.473766823299229,0.0
1657000018.626063,8517.29490783764,-327.96865666424856,322.70661742659286,3.747379755601287,0.0
1657000018.626063,8548.190221371595,-173.70526329195127,516.3810765319504,-0.007479799911379814,0.0
1657000018.6267972,8131.836509054527,15.931973811239004,690.0377211244777,2.251419773325324,0.0
1657000018.6267972,8187.056131900288,-228.34707159455866,380.1421309961006,7.4274413120001554,0.0
1657000018.6404045,8519.879178707022,-518.0602916120552,62.27868401212618,7.760292408056557,0.0
1657000018.6404045,8549.319671158213,-345.1759363603778,294.6461480590515,2.8685032660141587,0.0
1657000018.6560547,8136.769437096082,-139.16915715113282,495.0056783352047,3.9605540530756116,0.0
1657000018.6560547,8188.660548981279,-334.66120763495564,228.5901650916785,9.323570589534938,0.0
1657000018.6567771,8519.49022911163,-583.1719498406164,-41.35394376004115,7.681754508987069,0.0
1657000018.6567771,8537.404349899385,-273.7064482071437,316.5731814992614,4.267225849442184,0.0
1657000018.6703732,8142.28952943068,36.35556746926159,641.6546353977174,3.0704578636214137,0.0
1657000018.6703732,8187.198248098604,81.21940733771771,642.3726961892098,5.6135898334905505,0.0
1657000018.6860375,8507.67214525165,105.18094635382295,685.5087022781372,2.4346748711541295,0.0
1657000018.6860375,8554.903341792058,441.49518976919353,1119.0117258420214,-2.935821465216577,0.0
1657000018.6867843,8144.8999795997515,707.1197141720913,1424.2156114759855,-3.1115967631340027,0.0
1657000018.6867843,8162.552307390608,584.8100260212086,1282.353726356756,0.7367602912709117,0.0
1657000018.7003605,8499.522903248202,400.76393935177475,1116.0310255773365,-0.9125355891883373,0.0
1657000018.7003605,8545.594730802346,648.2069401200861,1457.895280526951,-4.738453243859112,0.0
1657000018.7481213,8142.278309730813,882.7790751908906,1718.4298010901548,-1.4735205825418234,0.0
1657000018.7481213,8153.901918793097,655.5838927826844,1477.7672389415093,0.9835936883464456,0.0
1657000018.748846,8494.178586211521,370.1453784145415,1178.3153194393963,-2.857283566147089,0.0
1657000018.748846,8553.377462610137,527.1014997549355,1410.3499323902652,-2.7637860672548413,0.0
1657000018.749565,8138.014823781326,722.0718341949396,1630.3289778339677,3.4706271588802338,0.0
1657000018.749565,8163.939810274169,491.26390842953697,1344.8437147163786,1.9073489774018526,0.0
1657000018.7503164,8505.9630109719,178.96543257962912,1039.0751041891053,1.6829549800604582,0.0
1657000018.7503164,8547.823711175937,327.0392915252596,1243.5728337662295,0.160815698094666,0.0
1657000018.7610595,8141.34333474189,520.9287948780693,1438.9620370012708,4.716013844124973,0.0
1657000018.7610595,8157.327667152509,300.33453589165583,1160.9977126945741,5.961400529369712,0.0
1657000018.761807,8512.365719696041,-44.17943817656487,797.3691099528223,3.096637163311243,0.0
1657000018.761807,8557.958840055857,97.53659084439278,976.3382824324071,1.5034397821873426,0.0
1657000018.792436,8146.354800682515,305.07298913551494,1180.3142959657125,4.065271251834929,0.0
1657000018.792436,8168.809160016477,63.69610609533265,887.5025688349269,6.268072325736284,0.0
1657000018.7931845,8514.403965171892,-319.3463173164055,477.1102570472285,10.280984978191555,0.0
1657000018.7931845,8562.861848897766,-194.85626749135554,635.9288485655561,2.1018237750977278,0.0
1657000018.793934,8154.840633681975,47.25176599016413,861.3681479445659,8.560630998574197,0.0
1657000018.793934,8166.191230047494,-135.7490186416544,616.0344507512636,12.438907252624631,0.0
1657000018.7946832,8535.713915119413,-488.69272721000016,227.8908037999645,7.936067705973983,0.0
1657000018.7946832,8570.027497212868,-338.3936277907342,415.0466172825545,5.722046932205558,0.0
1657000018.8053548,8140.58039515093,-126.35438995296136,624.7783368476667,5.015205840580165,0.0
1657000018.8053548,8170.492114996538,-332.00774861639366,356.5115731260739,10.617575974203646,0.0
1657000018.8367534,8536.286119812634,-711.6094640688971,-61.85794526711106,10.396921876817942,0.0
1657000018.8367534,8566.837362550665,-559.1262630755082,110.06151579599828,8.369896100834012,0.0
1657000018.837551,8154.421764886938,-320.0550283580087,330.8072407306172,11.3019776660949,0.0
1657000018.837551,8166.393184645101,-542.3135428247042,53.46373981656507,11.608649462461472,0.0
1657000018.838176,8549.203734259587,-957.8556968513876,-396.406955903396,11.975159658119082,0.0
1657000018.838176,8558.22437295271,-791.6882019201294,-200.65685232263058,11.844263159669936,0.0
1657000018.8503537,8144.503550204448,-552.037282709498,28.268033815082163,11.515151963569224,0.0
1657000018.8503537,8166.352045745589,-756.8267244831659,-246.45379723003134,14.08446323312819,0.0
1657000018.866027,8542.329798141029,-1175.3346191747114,-705.0347199467942,11.66100806184113,0.0
1657000018.866027,8567.645180941094,-987.531802999787,-499.18314658571035,12.805417448282242,0.0
1657000018.8667564,8134.013130828738,-728.8260935149156,-246.25932243233547,12.139715256169438,0.0
1657000018.8667564,8157.60441974923,-919.920021650847,-516.541892230045,11.29823776613921,0.0
1657000018.880326,8562.214846205432,-1351.050078692846,-990.6172204632312,12.49126585200429,0.0
1657000018.880326,8574.799609556329,-1132.4491863828152,-742.4262397037819,11.27953826636076,0.0
1657000018.896058,8131.009991164319,-808.0633538761176,-413.19723675446585,11.997599057853222,0.0
1657000018.896058,8158.176624442451,-970.0346810570918,-634.3225615345873,14.05454403348267,0.0
1657000018.896806,8567.121594947297,-1398.6515253288671,-1092.6491710543633,13.818930336274207,0.0
1657000018.896806,8575.375554149505,-1180.080552218482,-843.1043465109542,15.008218522183597,0.0
1657000018.910333,8126.997078511864,-878.2500563445501,-545.8814073824324,12.790457848459482,0.0
1657000018.910333,8144.589567903429,-1067.2982592047192,-788.122207312379,14.86236242391169,0.0
1657000018.9260788,8575.34563494986,-1519.5176120968536,-303.96597874863073,13.605756038799882,0.0
1657000018.9260788,8584.29895544378,-1316.3924258034676,-73.11317418375984,13.355182741768658,0.0
1657000018.9268093,8124.147274745628,-973.2696945187636,264.88589416164905,12.539884551428258,0.0
1657000018.9268093,8133.6241812333465,-1149.011333336588,27.544363173656166,13.123308944515884,0.0
1657000018.9403355,8583.176985457074,-669.2345276209526,475.68535516411066,11.919061158783734,0.0
1657000018.9403355,8577.428759225179,-498.5454936432652,674.9060859037563,10.658714873716235,0.0
1657000018.956059,8115.99803274218,-151.5183068048209,1018.0736959879287,13.422500940971076,0.0
1657000018.956059,8131.74675145559,-327.03181172534823,786.1251007360406,13.6730742380023,0.0
1657000018.956808,8594.127412527334,146.72749496158212,1215.6750500467606,16.55653710383922,0.0
1657000018.956808,8585.914592224639,346.3109959969297,1451.9058307479136,13.381362041458488,0.0
1657000018.9703343,8112.706920781173,674.4142890595831,1778.67023962643,10.314644077792764,0.0
1657000018.9703343,8125.23932553269,520.6894412809052,1549.0553419468924,11.24961906671524,0.0
1657000018.986055,8603.798793812748,969.5522339628078,1969.0161877712235,13.029811445623636,0.0
1657000018.986055,8580.85450758459,1189.6603059549816,2217.6222974257544,12.633382050320506,0.0
1657000018.986797,8110.212407510728,1552.8812596015632,2578.0981645048596,11.889141959138215,0.0
1657000018.986797,8124.091176246293,1440.695480630733,2411.040573384147,15.584163115359843,0.0
1657000019.0003207,8605.676223590504,1898.2086619101465,2820.342704334762,14.249018831178546,0.0
1657000019.0003207,8587.103880410548,2140.124090543948,3099.9114457224496,11.055144269019365,0.0
1657000019.0160785,8111.742026592605,2553.2091302997433,3515.595715947449,14.189180431887507,0.0
1657000019.0160785,8112.280572186224,2453.0172104868107,3377.9898369777948,14.589349727146327,0.0
1657000019.0168152,7637.732146608643,2868.018948969897,3768.3007559534162,13.486079240217805,0.0
1657000019.0168152,7605.090299795382,3174.0699219438247,4098.724656938575,12.685740649700165,0.0
1657000019.0303311,7119.380142800044,3633.806473746896,4551.979962118436,11.365555965341628,0.0
1657000019.0303311,7133.565583331976,3501.066204619594,4395.177176676225,14.948380122892559,0.0
1657000019.0623906,6656.582482883241,3944.229389769025,4816.331050586421,15.486925716511905,0.0
1657000019.0623906,6633.499820356723,4221.236299687065,5144.75036519533,12.524924951605499,0.0
1657000019.063136,7115.389669547323,4710.611558638979,5634.1293640471995,10.636275473982096,0.0
1657000019.063136,7117.667268620338,4606.335668074433,5511.613981398754,12.184594055637717,0.0
1657000019.0638835,6670.8801204138435,5045.530819370877,5947.7162354318425,12.629642150364816,0.0
1657000019.0638835,6633.877550252248,5423.047540598083,6359.022952758707,9.906994982622564,0.0
1657000019.0646327,7107.707915038336,4968.511319683399,5924.513896106742,14.753905325196683,0.0
1657000019.0646327,7116.979127028491,4913.796583331656,5855.740875821561,13.441200440749526,0.0
1657000019.0753949,6661.175080028828,5331.4087719838135,6276.382383437827,13.830150036141276,0.0
1657000019.0753949,6638.155995801557,5606.328817726579,6606.839943522587,11.963939958252013,0.0
1657000019.0903971,7112.723120878916,5149.043770344462,6178.101552502252,10.415621376596391,0.0
1657000019.0903971,7114.114363662433,4992.102608603891,6007.588293822482,10.583916874602437,0.0
1657000019.106033,6680.166292003822,5350.459822358098,6334.313433751464,9.925694482401013,0.0
1657000019.106033,6636.641336319502,5573.791688112076,6610.426507580094,6.948734117671847,0.0
1657000019.106776,7114.514532957692,6016.807147213258,7073.487830443773,9.177714491263032,0.0
1657000019.106776,7111.7432670905255,5846.593080529943,6869.221974663902,10.632535574026406,0.0
1657000019.1203976,6693.760828342754,6153.739844190888,7159.1165798292495,10.08277028053999,0.0
1657000019.1203976,6640.665468671825,6386.428939634003,7429.010200031567,7.973466705530882,0.0
1657000019.1360683,7106.533586452249,6849.325706899632,7897.04932973627,12.4875259520486,0.0
1657000019.1360683,7136.632301295642,6661.803383221384,7668.26094994694,8.691527497023344,0.0
1657000019.136784,6682.0362419816665,6931.076180031057,7905.710938033648,10.666194673627615,0.0
1657000019.136784,6617.309793448541,7178.354625201318,8179.131283894181,11.533851463347673,0.0
1657000019.1503878,7070.791362575721,7651.708152743056,8655.87690069573,10.942947270348668,0.0
1657000019.1503878,7055.6372879552655,7517.082974038087,8487.102695495356,12.4501269524917,0.0
1657000019.166033,6680.042875305284,7811.839449145831,8736.049136045855,9.334790289402008,0.0
1657000019.166033,6635.829778029118,8068.639679603279,9021.493260263931,10.957906870171428,0.0
1657000019.166776,7085.642505299766,7609.997048537247,8581.39305317821,10.254805678501725,0.0
1657000019.166776,7099.857865031343,7486.045544305816,8401.133615213912,9.865856083109975,0.0
1657000019.1804094,6694.867838729639,7776.635770862922,8652.821402431931,10.688634073361754,0.0
1657000019.1804094,6646.68296770053,8041.716139822267,8953.94318726426,11.560030763037503,0.0
1657000019.19604,7089.475902754348,7575.9302998408675,8502.739217210095,12.109796056523919,0.0
1657000019.19604,7070.316395281348,7485.563097211532,8373.15168374544,12.165894555859268,0.0
1657000019.1967838,6710.8147721407,7760.707536951639,8620.91631590994,12.0798768568784,0.0
1657000019.1967838,6641.985653356183,8082.533407938667,8981.94381823251,11.27205846644938,0.0
1657000019.2110364,218.43072686204687,795.5066397748888,1699.1805360182188,10.039761431049556,0.0
1657000019.2117856,203.95731403352693,664.5166438268498,1542.1346570788883,11.924671008717269,0.0
1657000019.2117856,-163.4654172132723,948.262853465043,1795.0827905819751,9.729349734727293,0.0
1657000019.2253556,-221.0897957305424,1244.0627606604248,2127.328022845555,10.208056929055601,0.0
1657000019.2253556,206.1563752074726,815.3580287396908,1714.218673740048,7.792081557679921,0.0
1657000019.241068,196.89638291718438,665.8929270105436,1558.1264692894183,13.10647939471528,0.0
1657000019.241068,-152.15969964722171,924.1367588508874,1778.066245783586,11.315067315939814,0.0
1657000019.2417855,-220.97011893196031,1189.9987669009715,2074.9806431657635,11.49084261385724,0.0
1657000019.2417855,207.1549284956418,766.2120034219697,1653.7931101559661,10.26415542839095,0.0
1657000019.2553864,198.818691494409,598.73554350622,1469.4085625405423,11.247749116737396,0.0
1657000019.2553864,-146.1609001182951,847.3341733608395,1696.2521943529136,9.018768743146211,0.0
1657000019.2710474,-219.78083074605092,1156.4743036981672,2017.505860646721,8.67095804726705,0.0
1657000019.2710474,198.17168880207464,728.6334886671975,1612.4111171462573,10.810180821921676,0.0
1657000019.2717838,195.38172343512997,565.8431233959273,1411.4513329272158,11.748895710799843,0.0
1657000019.2717838,-128.10466313222423,804.6619148664176,1634.2521328874864,9.662031535524875,0.0
1657000019.3017523,-206.90435519861057,1151.2384437602013,2010.9610357242636,11.689057311508805,0.0
1657000019.3017523,212.24867223529145,728.0538041740656,1613.5069078332745,10.069680630695075,0.0
1657000019.3025513,190.76668688980862,582.7325115958229,1424.8775737681426,9.792928033974022,0.0
1657000019.3025513,-118.48564044618979,797.0624381564558,1608.5964191914536,12.362239303532988,0.0
1657000019.303177,-208.58357027871534,1127.867808937095,1964.066430179868,9.796667933929712,0.0
1657000019.303177,199.0430854917504,783.9092100122944,1637.3300705510192,10.611966124270111,0.0
1657000019.315335,190.8527045887895,632.2226077094674,1465.7434605839662,10.66432472364977,0.0
1657000019.315335,-124.92200826993212,850.6701641213149,1667.6008207923733,10.585786824580282,0.0
1657000019.3474321,-201.72459375998005,1156.9193517928943,1995.713463604916,10.080900330562145,0.0
1657000019.3474321,187.71118862600997,789.4816609462723,1645.569070153404,12.848426297772676,0.0
1657000019.3481996,182.05271999305114,626.474381477572,1460.668416344095,12.747448998969048,0.0
1657000019.3481996,-112.18016912089661,797.7281403485686,1607.6838836022653,9.299261239822954,0.0
1657000019.3489494,-200.83823747048154,1148.9197057876736,1981.1241138777696,9.224463240709156,0.0
1657000019.3489494,187.22874153172597,765.6921573281288,1623.3989432160743,9.295521339867264,0.0
1657000019.3496993,184.71178886154667,588.5031772274524,1410.471479138825,11.359946115408093,0.0
1657000019.3496993,-102.33301253756508,800.6639618137851,1577.0578428651206,8.476483249571174,0.0
1657000019.36035,-190.48993429308757,1072.9249386880547,1902.6834522071294,7.470450161490589,0.0
1657000019.36035,185.7402613493614,732.6838003192097,1575.8498551794328,9.400238538626581,0.0
1657000019.3917537,177.20580965047702,536.7242623409256,1349.8738801567815,10.103339730296284,0.0
1657000019.3917537,-102.78554043220356,722.4663936402649,1504.5187433245592,12.459476702380925,0.0
1657000019.3925495,-186.97442833473906,1037.3136113099754,1845.691116782371,10.825140421744436,0.0
1657000019.3925495,189.13983040908352,690.0751201240346,1506.5008903010748,8.779415145982057,0.0
1657000019.3932495,182.97273538215086,462.93603621516377,1251.465892622713,9.172104641329497,0.0
1657000019.3932495,-103.24554812675342,657.9680790044367,1409.2709712530486,10.761562122497708,0.0
1657000019.405351,-183.2906268783845,984.6034613344818,1764.9504166389816,9.695690635126084,0.0
1657000019.405351,171.31546722026542,616.0886793006212,1414.271217493806,10.006102331448346,0.0
1657000019.4210758,162.0592148299329,448.9637699807063,1218.685669511091,9.706910334993154,0.0
1657000019.4210758,-86.44965742575005,620.4344430491328,1363.9134645904414,11.000915719661862,0.0
1657000019.4218252,-197.371350211557,927.7083633085713,1688.312386746984,6.008149278815836,0.0
1657000019.4218252,159.14209286449477,585.384100664407,1366.6099324584939,8.038914954755455,0.0
1657000019.4354155,166.47603667760268,378.1038855202496,1125.2667085179128,8.756975746247917,0.0
1657000019.4354155,-87.0218621189706,538.2351819230244,1259.461798727978,10.080900330562145,0.0
1657000019.4510953,-189.17348950868472,878.745593088679,1621.603791237343,10.376352427061647,0.0
1657000019.4510953,150.55902246618643,549.709194987081,1309.307185337413,11.86483260942623,0.0
1657000019.4518268,160.3874795497395,346.7635238915682,1071.834757850971,7.485409761313349,0.0
1657000019.4518268,-83.22960356390104,444.8386603295803,1140.9518489320762,9.602193136233836,0.0
1657000019.4653842,-186.53312013996765,805.1705412603915,1514.4780969065614,8.057614454533905,0.0
1657000019.4653842,152.70572504075244,494.25395844411105,1216.9540958316065,12.107926106546074,0.0
1657000019.4810803,154.18298552324995,295.725109196268,984.4632150861435,11.012135419528931,0.0
1657000019.4810803,-73.85741427494213,420.63028791639954,1088.9223607485183,11.509542113635689,0.0
1657000019.4818256,-186.64157723868266,777.424223489128,1460.6272774445824,8.6522585474886,0.0
1657000019.4818256,148.7937896871008,447.4042316991836,1157.5570047353394,11.659138111863285,0.0
1657000019.495364,149.092981683556,245.25889919418842,918.4913798677735,10.28659482812509,0.0
1657000019.495364,-72.59706798987463,370.5941664092243,1011.7196059632115,10.353913027327508,0.0
1657000019.5110943,-178.74290853226557,727.844369776547,1386.3079855251126,8.842993445228785,0.0
1657000019.5110943,136.20154653629288,426.62908744532615,1101.4098867005669,4.732843393925577,0.0
1657000019.511834,154.25404362240806,192.6497265174985,837.2869321298786,10.6905040233396,0.0
1657000019.511834,-53.905048011336476,293.4811692228541,910.368317164015,7.238576364237815,0.0
1657000019.5253613,-179.9957750174217,672.0188831379637,1296.19883599272,9.47129663778469,0.0
1657000019.5253613,137.0131048266776,364.7711421782151,1012.8939345492981,10.054721030872315,0.0
1657000019.541083,155.73504400486127,148.7021621381864,774.0901026786305,10.840100021567196,0.0
1657000019.541083,-51.76582523668185,233.08926473837346,831.4003295996226,9.116006141994148,0.0
1657000019.5418324,-171.03123482363299,631.9832541123033,1237.4300480890088,9.157145041506737,0.0
1657000019.5418324,129.09199672052637,331.65058817062527,958.0333420992829,9.86024623317644,0.0
1657000019.555382,149.32485548080876,114.82614833954722,708.7465706528164,9.538614836987108,0.0
1657000019.555382,-46.03255860460922,194.89740639086813,747.9295024885796,11.546941113192588,0.0
1657000019.5711312,-171.90637141326442,576.2512649726123,1153.9966199775226,9.216983440797776,0.0
1657000019.5711312,128.31035762978718,326.73635962884873,931.390294814948,8.981369743589312,0.0
1657000019.571874,147.7952363989316,112.02496327273548,674.9528346532024,8.046394754666835,0.0
1657000019.571874,-39.77196607878432,215.4369369475171,767.0104720625095,9.86024623317644,0.0
1657000019.5853324,-166.07960728229955,596.3120883349329,1150.6344499173574,10.552127724979073,0.0
1657000019.5853324,113.36197750689462,327.61149621848017,907.6045310967602,7.676144659053534,0.0
1657000019.6010764,142.29010366415605,101.08201600238681,665.7900797617622,7.414351662155241,0.0
1657000019.6010764,-29.775213497225195,186.4190531913191,694.0412840270437,10.039761431049556,0.0
1657000019.601826,-174.5093417824246,574.227979096584,1134.478082108777,10.25667562847957,0.0
1657000019.601826,120.43412832310423,319.0396455200389,900.3304256829433,8.080053854268044,0.0
1657000019.6153271,139.0887493020855,86.20469397865236,632.4638312566094,8.442824149969965,0.0
1657000019.6153271,-15.421477467287332,133.41345111932606,633.4848239445128,10.047241230960935,0.0
1657000019.6310763,-172.40751800732687,546.2123885285109,1080.5262853479944,11.229049616958946,0.0
1657000019.6310763,111.40974973002449,292.8154670307413,855.432926714886,7.2647556639276445,0.0
1657000019.6318004,143.14654075400904,81.94868782907724,612.6760205910541,8.091273554135114,0.0
1657000019.6318004,-18.72380912816152,152.2924660956487,655.3557588853873,7.814520957414061,0.0
1657000019.6454082,-172.6880105040036,555.9660476129502,1091.5066316179,8.012735655065626,0.0
1657000019.6454082,115.83779127756134,278.5103497002274,830.7907259068452,9.568534036632627,0.0
1657000019.6610873,145.14364733034745,55.62727194093168,575.5612534307875,10.178137729410082,0.0
1657000019.6610873,-7.3058945634402335,113.13197365961969,604.2201067912392,10.488549425732344,0.0
1657000019.6618092,-176.23343566199765,558.8195912791416,1078.589017170947,4.444871097337455,0.0
1657000019.6618092,107.61375127499923,306.83261206466705,842.98653966235,11.06449401890859,0.0
1657000019.675406,139.7507115942426,60.36946508474648,560.683931407053,8.001515955198556,0.0
1657000019.675406,-5.869772980455309,77.887156477198,544.220891802106,7.765902257990092,0.0
1657000019.6910603,-181.09904550435022,551.4519883664325,67.68844929803163,10.742862622719258,0.0
1657000019.6910603,104.65549041004851,305.20201568398625,-147.9990609465167,7.758422458078712,0.0
1657000019.6918085,147.88125409791246,20.51709115691483,-458.08912587258965,6.864586368668824,0.0
1657000019.6918085,7.477929961401969,47.51542893704027,-466.34682497475296,8.588680248241872,0.0
1657000019.705463,-186.6303575388156,508.9368056701496,18.13851478509605,7.4255713620223105,0.0
1657000019.705463,100.49298175936565,274.08230815269053,-190.29358954541385,7.014182366896421,0.0
1657000019.7211065,146.89018060965464,4.42804154753685,-483.89443556685,9.015028843190521,0.0
1657000019.7211065,11.4684032141231,63.2529279505834,-447.3705725995824,7.077760666143149,0.0
1657000019.721856,-182.92785658268258,509.0602223686874,31.00003073271364,7.04784146649763,0.0
1657000019.721856,94.88687172578648,294.217929514125,-163.61688316147774,9.273081940133125,0.0
1657000019.7354565,145.4914580262266,3.0367987640202045,-490.18120739236474,8.480223149526864,0.0
1657000019.7354565,14.67349747614935,51.19175059348345,-464.1440239008516,10.219276628922671,0.0
1657000019.7510705,-182.08637909265235,499.7104724794626,4.457960747182369,7.148818765301257,0.0
1657000019.7510705,91.05347427120432,299.42387025244534,-172.4131278572604,9.355359739158303,0.0
1657000019.7518086,149.17151958262548,5.879122730344534,-489.88201539590955,13.951696784701198,0.0
1657000019.7518086,23.619338170159608,38.50227004382759,-484.88176915515214,9.770488634239882,0.0
1657000019.7653823,-189.4053633059375,507.9008533824235,-967.0988595918752,9.400238538626581,0.0
1657000019.7653823,88.5402615009807,293.30913382489234,-1163.989632659126,8.528841848950833,0.0
1657000019.7810524,155.11048071226105,-20.53953055664897,-1502.7497706455179,7.597606759984046,0.0
1657000019.7810524,22.71428238088265,-5.808064631186426,-1523.1210057041608,6.6514120711945,0.0
1657000019.781801,-188.70974191417918,479.0437853243202,-1993.0861838860437,8.794374745804816,0.0
1657000019.781801,93.57416684133932,269.8973601022735,-2182.830008137971,10.309034227859229,0.0
1657000019.7953901,149.34355498058721,-27.981931468471885,-2509.7047440651804,9.568534036632627,0.0
1657000019.7953901,29.958468595054,-23.78576371818781,-2525.0196343837306,10.608226224314421,0.0
1657000019.8110611,-183.97876847023144,-501.93758290307596,-3001.552076887805,9.531135037075728,0.0
1657000019.8110611,82.73593676974997,-711.4392986209132,-3155.1497680679895,9.568534036632627,0.0
1657000019.811808,155.52186970738694,-1013.2978437445126,-3482.8809410850517,7.732243158388883,0.0
1657000019.811808,44.263585925567895,-996.9357814383693,-3509.639925268013,7.44801076175645,0.0
1657000019.825382,-205.13538251956925,-1482.1073928400874,-3954.386958048679,7.4255713620223105,0.0
1657000019.825382,80.67525189416483,-1701.5946414396167,-4155.215845769271,7.174998064991087,0.0
1657000019.8411071,158.94013826688752,-2052.3673380836844,-4539.853336512111,5.910911879967898,0.0
1657000019.8411071,60.801423529628664,-2021.2139714527875,-4554.861555034295,8.106233153957874,0.0
1657000019.8418558,-186.94076923513785,-2485.060673307162,-4983.47839930607,8.614859547931701,0.0
1657000019.8418558,85.72037693439052,-2677.0708769322373,-5158.801169328857,9.160884941462427,0.0
1657000019.8554027,175.04040757613257,-3042.896670897957,-5537.791411138605,8.715836846735328,0.0
1657000019.8554027,65.66703337198123,-3032.499749021139,-5560.77309636632,10.088380130473524,0.0
1657000019.8710766,-183.86283157160506,-3475.279594425112,-5993.230817892589,8.293228151742369,0.0
1657000019.8710766,90.74680247483775,-3690.6529530733824,-6173.4416371574625,8.023955354932696,0.0
1657000019.871801,178.34273923700675,-4032.057200328447,-6556.695364916697,6.965563667472452,0.0
1657000019.871801,73.76017687609419,-4040.243841331452,-6571.150078245439,8.409165050368756,0.0
1657000019.8853889,-206.61264300206676,-4484.018500123639,-7007.280381528195,11.161731417756528,0.0
1657000019.8853889,62.12534811394289,-4696.5644944054075,-7190.408322758507,6.711250470485538,0.0
1657000019.9010625,169.11266614636406,-5052.535651987884,-7576.549253283534,5.297568287234753,0.0
1657000019.9010625,59.526117644738406,-5052.752566185314,-7614.06418973906,5.581800683867186,0.0
1657000019.9018075,-218.92813355615363,-5481.859337351285,-8012.1858897721395,8.210950352717191,0.0
1657000019.9018075,63.557729796972126,-5688.309294705279,-8199.364142654464,8.603639848064631,0.0
1657000019.9153829,180.75123480847105,-6086.56002128683,-8634.995169293135,7.0590611663647,0.0
1657000019.9153829,89.47523648990318,-6085.007962805219,-8647.142364349216,3.943724503275007,0.0
1657000019.947434,-204.1517888312228,-6467.904530118685,-9031.800424541812,11.932150808628649,0.0
1657000019.947434,69.25359742948785,-6673.146499786992,-9189.721440070774,7.534028460737318,0.0
1657000019.948182,199.90326248155907,-7063.132047466468,-9612.28151636431,8.857953045051545,0.0
1657000019.948182,89.0227085952647,-7055.44281315757,-9639.556606741156,8.65599844744429,0.0
1657000019.948933,-216.33264298690483,-7498.0431433636695,-10061.583747291006,5.750096181873232,0.0
1657000019.948933,50.84954974753782,-7727.336409647018,-10273.976405674592,6.546694872435182,0.0
1657000019.9496825,202.5174525505863,-8116.6300758346915,-10684.613680909388,8.65599844744429,0.0
1657000019.9496825,90.63086557621136,-8076.489729610272,-10678.60740158055,5.44716428546235,0.0
1657000019.9603584,-227.00631746044382,-8451.472668617498,-11029.314649975393,7.9902962553314865,0.0
1657000019.9603584,47.72299338458106,-8653.876054219436,-11195.99451120058,9.02998844301328,0.0
1657000019.9753573,221.5722428248264,-9117.414214327466,-10716.541206831113,8.386725650634617,0.0
1657000019.9753573,104.46849541226402,-9075.39643832529,-10704.337913275696,6.314821075182408,0.0
1657000019.9910855,-220.74198503466323,-9479.10554889217,-11087.477574086282,5.619199683424085,0.0
1657000019.9910855,50.80841084802523,-9661.496729831211,-11254.553864706773,6.63271257141605,0.0
1657000019.9918323,223.39357410324737,-10139.156752171926,-10766.15845954325,6.714990370441228,0.0
1657000019.9918323,115.02997288713232,-10152.007048419677,-10827.313303618692,9.321700639557093,0.0
1657000020.0053568,-225.40564027940854,-10515.381337964442,-11158.965761739295,9.493736037518829,0.0
1657000020.0053568,32.67737586284056,-10685.243854051922,-11308.075572972652,7.885579056572169,0.0
1657000020.0211334,211.92704083910212,-11154.930409687106,-10825.630348638631,1.8792997277341783,0.0
1657000020.0211334,125.77470545982942,-11173.932841361966,-10884.133603645489,5.8361138808541,0.0
1657000020.0218468,-242.08185418182984,-11546.30533020012,-11223.497735474724,8.061354354489595,0.0
1657000020.0218468,19.019261224661022,-11718.886753555387,-11377.151525154244,8.027695254888386,0.0
1657000020.0354016,220.78312393417582,-12205.107406894676,-10914.965338880196,8.816814145538956,0.0
1657000020.0354016,114.55126569280401,-12187.821589299478,-10940.703330375254,7.8257406572811306,0.0
1657000020.0511112,-245.60857984004542,-12534.10453604674,-11275.875034354161,6.737429770175368,0.0
1657000020.0511112,11.292627916205674,-12696.094562727492,-11376.915911457036,6.587833771947771,0.0
1657000020.051823,225.28596348082647,-12218.395271437243,-10930.474703996442,6.670111570972949,0.0
1657000020.051823,136.06317023793235,-12189.732678176835,-10946.739528903738,8.476483249571174,0.0
1657000020.065365,-253.2903343490325,-12543.143874239642,-11281.735457584728,10.163178129587322,0.0
1657000020.065365,-0.6787918419577181,-12671.867490814533,-11381.81518039899,7.698584058787674,0.0
1657000020.0811024,230.86215431476012,-12195.050815913826,-10926.248617046513,8.712096946779639,0.0
1657000020.0811024,129.301431118045,-12136.872932203114,-10905.888601687737,7.1450788653455675,0.0
1657000020.0818615,-261.1703035556711,-12465.544690059032,-11206.021182981785,7.691104258876294,0.0
1657000020.0818615,-10.417491326574236,-12613.30065750843,-11325.593264365103,9.097306642215699,0.0
1657000020.0953572,240.7205305979587,-12151.589438528754,-10877.71967522148,4.343893798533827,0.0
1657000020.0953572,139.7133125946857,-12139.326306574047,-10900.720059948973,9.639592135790735,0.0
1657000020.1110823,-264.27442051889375,-12428.994647792075,-11183.731379245874,8.173551353160292,0.0
1657000020.1110823,-11.333766815718263,-12567.352246652823,-11260.354449538048,6.464417073410004,0.0
1657000020.1118248,242.7625159737654,-12142.18733004015,-10854.072287801653,8.304447851609439,0.0
1657000020.1118248,149.68762577651069,-12151.230408133008,-10905.155581296422,8.902831844519824,0.0
1657000020.125352,-269.39434355823323,-12434.290346129332,-11170.974580497015,6.049288178328425,0.0
1657000020.125352,-29.820092296693474,-12555.728637590539,-11251.053318348248,6.2437629760243,0.0
1657000020.1411064,246.1022466341965,-12114.171739472076,-10840.60864796117,6.685071170795709,0.0
1657000020.1411064,152.8665407388471,-12114.381173869595,-10891.08233776316,7.649965359363705,0.0
1657000020.1418295,-280.09793723141775,-12387.736071480904,-11128.889486295637,8.768195446114987,0.0
1657000020.1418295,-29.55829929979518,-12511.56041911384,-11212.640805903357,8.914051544386894,0.0
1657000020.155382,249.6962904916145,-12106.03745706845,-10830.544577180408,8.835513645317405,0.0
1657000020.155382,168.18891085730866,-12115.996810650453,-10865.265808369033,7.721023458521813,0.0
1657000020.171118,-277.2630930650048,-12386.887114190962,-11127.468324312475,9.157145041506737,0.0
1657000020.171118,-41.73541355552152,-12534.29527094448,-11222.768454983365,7.253535964060575,0.0
1657000020.1718516,253.78774104313925,-12138.387591685168,-10844.857174310833,6.703770670574158,0.0
1657000020.1718516,165.70935718668625,-12130.406645179726,-10879.02116040606,8.23338975245133,0.0
1657000020.1854362,-280.28119232924655,-12393.155186516698,-11124.136073451955,8.899091944564134,0.0
1657000020.1854362,-48.41487487638369,-12528.573224012274,-11215.96183706401,5.888472480233759,0.0
1657000020.217486,258.1821234910749,-12156.42512917146,-10881.410956477746,8.764455546159297,0.0
1657000020.217486,177.26938794972375,-12189.65040037781,-10942.464823254384,6.4980761730112135,0.0
1657000020.218204,-277.5922042611055,-12422.97714876337,-11176.389955632854,8.390465550590307,0.0
1657000020.218204,-55.984432386700064,-12541.685313256923,-11237.118451113347,8.921531344298273,0.0
1657000020.218948,254.99385877884924,-410.59052648535,-99.04190057655796,8.132412453647703,0.0
1657000020.2196982,172.82825675234199,-388.25584394996986,-111.76504022581503,8.588680248241872,0.0
1657000020.2196982,-283.8733662366867,-673.3278481224552,-395.5654784133658,6.24002307606861,0.0
1657000020.2303731,-74.09115802217275,-752.2285174876451,-437.63561301492155,7.631265859585255,0.0
1657000020.2303731,240.1539357546717,-381.0527966353111,-90.03622148325667,9.89016543282196,0.0
1657000020.2460792,178.58396278414875,-387.8781140544452,-133.43028066912666,7.548988060560077,0.0
1657000020.2460792,-290.08534006308764,-678.660945459269,-395.35230411589146,7.799561357591301,0.0
1657000020.2468057,-88.76652544829994,-775.2812608145177,-454.502561815083,5.873512880410999,0.0
1657000020.2468057,238.75147327128798,-404.04570156289265,-99.05686017638072,7.231096564326435,0.0
1657000020.260397,177.51809129677713,-416.6977831129916,-150.74227756401524,5.660338582936674,0.0
1657000020.260397,-286.63341240398586,-705.9023767365143,-438.1031005093828,7.137599065434188,0.0
1657000020.2760696,-95.01963817421347,-805.7016070540994,-485.6035698466003,7.945417455863208,0.0
1657000020.2760696,238.20544787775725,-429.4471020619385,-142.89222755702212,9.676991135347635,0.0
1657000020.2768009,175.62944181915373,-461.3185294843279,-195.5163598335348,6.019368978682905,0.0
1657000020.2768009,-286.3529199073091,-771.780714455992,-504.5723424218595,6.834667169023305,0.0
1657000020.2904086,-93.51245849207044,-858.4828151287511,-547.5475328126922,6.393358974251896,0.0
1657000020.2904086,226.39110391773283,-473.4208457409404,-185.00350105809048,8.379245850723237,0.0
1657000020.3060884,198.37551334965974,-515.5582985416986,-264.61101151490584,6.385879174340516,0.0
1657000020.3060884,-281.9510576594621,-835.7367435982451,-574.3476558951661,5.01707579055801,0.0
1657000020.3068125,-114.66907254140824,-869.3659239998087,-586.5247701508924,6.483116573188454,0.0
1657000020.3068125,231.99347405135632,-527.5147587000392,-257.6173985977657,6.995482867117971,0.0
1657000020.320397,197.38443986140192,-592.3085254323669,-364.0399917368777,5.245209687855095,0.0
1657000020.320397,-287.7666020905599,-925.1652313387021,-691.7954741036519,5.593020383734256,0.0
1657000020.3360596,-102.98188517987728,-982.0715490644798,-713.9880404407158,5.5331819844432175,0.0
1657000020.3360596,231.20061526075006,-604.4258012888022,-366.42978780856356,8.26330895209685,0.0
1657000020.3368056,206.7603690503165,-671.60562419286,-518.617536705453,5.394805686082691,0.0
1657000020.3368056,-265.66379335243255,-972.6844001756981,-864.1674630613998,7.8257406572811306,0.0
1657000020.3503823,-112.30171586945653,-1024.5904716607183,-890.4888789495453,6.5803539720363915,0.0
1657000020.3503823,223.95268914662302,-697.354835387785,-580.9691487667151,5.83237398089841,0.0
1657000020.3660717,208.21893003303558,-743.4977210410871,-675.0762513517402,4.23169679986313,0.0
1657000020.3660717,-273.70831815712154,-1096.7481014057994,-1039.2396597871557,5.8136744811199605,0.0
1657000020.366796,-126.48715640138835,-1184.228101269342,-1104.6542499121279,6.157745277043432,0.0
1657000020.366796,218.48869531136006,-822.7536809020676,-758.5657779625617,6.494336273055524,0.0
1657000020.380391,211.11361259873956,-925.9225610797293,-913.1134037314914,2.167272024322301,0.0
1657000020.380391,-272.56016887072474,-1326.5574738830328,-1315.7566428110003,8.880392444785684,0.0
1657000020.3961048,-122.99782974272966,-1403.453556871973,-1369.431686975062,6.595313571859151,0.0
1657000020.3961048,228.5864251917228,-1074.9613142139278,-1078.2935650744475,3.8726664041168988,0.0
1657000020.3968534,203.0204690946266,-1172.6325414567254,-1223.618597552646,5.925871479790658,0.0
1657000020.3968534,-270.3050091974437,-1556.5650610579178,-1627.3800667189062,7.152558665256947,0.0
1657000020.4103827,-142.56498631089926,-1650.9227369399741,-1676.3166576391086,6.546694872435182,0.0
1657000020.4103827,219.7714809961617,-1310.9415216180496,-1392.6807750496082,3.2817622111178935,0.0
1657000020.4261107,209.56155411712825,-1422.2895629988052,-1581.98703100672,0.723670641425997,0.0
1657000020.4261107,-272.10764097608626,-1837.7643988262862,-1987.053725257516,5.04325509024784,0.0
1657000020.426856,-139.9919351413846,-1911.5563648520038,-2043.3728786902502,7.085240466054529,0.0
1657000020.426856,223.6647168500349,-1587.690378439147,-1757.818427423481,3.9212851035408676,0.0
1657000020.4567916,215.39205814804882,-1728.3442758726887,-1968.804883423727,0.5329357436858118,0.0
1657000020.4567916,-266.92039973754436,-2144.2080612955615,-2412.3962871180847,1.1126202368177474,0.0
1657000020.457558,-146.7686338610947,-2230.857803368941,-2490.05156979803,4.23543669981882,0.0
1657000020.457558,211.12483229860663,-1917.7589889285155,-2216.543336288538,1.7895421287976205,0.0
1657000020.458258,211.94387038890272,-2047.1557874954306,-2405.397064351011,-1.0116429380141199,0.0
1657000020.458258,-272.4554516719654,-2460.2894459506497,-2864.77084585838,1.082701037172228,0.0
1657000020.4704132,-147.0379066579044,-2561.5023584514856,-2955.167967687361,-0.402039245236665,0.0
1657000020.4704132,211.02011509984732,-2227.6583189568482,-2661.239880419802,-2.5113428202457726,0.0
1657000020.502468,208.77617512643337,-2337.858211051207,-2834.3635892686434,-3.9212851035408676,0.0
1657000020.502468,-269.4186529079452,-2765.5550399338827,-3310.278948280029,-1.6586456303484738,0.0
1657000020.5032072,-157.67792203184217,-2828.0450282935053,-3362.031683866866,-2.1597922244109213,0.0
1657000020.5032072,210.01782191172242,-2463.1485994667746,-3036.9315304686315,-4.112020001281053,0.0
1657000020.5039554,223.96764874644578,-2590.795124854427,-3225.5608645337634,-3.3939592097885907,0.0
1657000020.5039554,708.1257472601719,-2969.6974790152162,-3646.3912370977923,-0.0766679490916431,0.0
1657000020.5047057,818.8978440477513,-2999.8560322578996,-3657.9213486611843,0.7012312416918576,0.0
1657000020.5047057,1183.2089785314165,-2594.987552704755,-3299.880156453233,-5.04699499020353,0.0
1657000020.515381,1197.3458003639244,-2687.000311314594,-3441.162357079331,-5.353666786570102,0.0
1657000020.515381,729.1327653112821,-3098.978340683505,-3874.016508000903,-2.945171215105802,0.0
1657000020.530383,819.8851776360534,-3091.4200028730556,-3858.6529989829287,-2.5150827202014625,0.0
1657000020.530383,1184.0055772219785,-2715.6629045750014,-3499.3252811902203,-6.834667169023305,0.0
1657000020.5460649,1198.2845152528025,-2804.818379618693,-3664.3446268350817,-6.606533271726221,0.0
1657000020.5460649,719.1584521294571,-3279.6865666424856,-4151.689120111056,-5.357406686525792,0.0
1657000020.5468016,812.3904181248508,-3329.116824356839,-4186.503848798573,-1.1201000367291272,0.0
1657000020.5468016,1183.8223221241497,-2946.6840046378784,-3846.1112444815226,-6.9842631672509015,0.0
1657000020.5604095,1204.15241828328,-3017.9515381935053,-3977.733283522073,-7.964116955641657,0.0
1657000020.5604095,718.4740504375659,-3424.458093927242,-4407.3636406818405,-4.747802993748337,0.0
1657000020.5765789,815.632911386434,-3429.6116760661826,-4389.999285187572,-3.1920046121813357,0.0
1657000020.5765789,1183.033203233499,-3093.250683901366,-4087.7087816190906,-7.107679865788668,0.0
1657000020.5910788,1198.9763967446052,-3186.9987560906447,-4238.752121129539,-12.362239303532988,0.0
1657000020.5910788,719.8017149218358,-3587.9889593897387,-4675.372351306491,-6.711250470485538,0.0
1657000020.5918226,808.3887251722626,-3548.3721991591156,-4616.955113998614,-6.082947277929634,0.0
1657000020.5918226,1189.6640458549373,-3123.667290240992,-4213.09266753355,-9.579753736499697,0.0
1657000020.606108,1212.9972816784866,-3166.2348315366544,-4299.054268015083,-5.716437082272023,0.0
1657000020.606108,737.5811993111856,-3541.333707442507,-4699.371289322153,-8.169811453204602,0.0
1657000020.6068208,812.8055470199324,-3492.1802023248747,-4620.294844659045,-3.4500577091239393,0.0
1657000020.6068208,1197.2859619646333,-3017.424212299753,-4162.985487927217,-5.806194681208581,0.0
1657000020.6204305,1212.6644305824302,-3053.6002645711415,-4230.587919526268,-8.461523649748415,0.0
1657000020.6204305,737.8729115077294,-3442.862141609192,-4624.146941613406,-4.63186609512195,0.0
1657000020.6361248,806.5973130934872,-3332.89038341213,-4479.970058421604,-1.250996535178274,0.0
1657000020.6361248,1195.7488630828448,-2875.9849358755164,-4028.666981018614,-1.7147441296838224,0.0
1657000020.6368692,1217.8441920210607,-2901.8313844692893,-4096.344210616779,-3.7529896055348217,0.0
1657000020.6368692,739.7877402850427,-3258.64962939173,-4457.6316359862685,-2.978830314707011,0.0
1657000020.6504052,814.6119186985306,-3146.2992948228493,-4276.871051427908,-1.3818930336274207,0.0
1657000020.6504052,1198.6435456485488,-3632.561087061651,-3789.3657424538396,-4.515929196495563,0.0
1657000020.6661348,1217.8479319210164,-3623.046781574376,-3788.0380779695697,-3.5323355081491172,0.0
1657000020.6661348,756.6995678846724,-3999.3162461663596,-4166.828235131688,0.9817237383686006,0.0
1657000020.6668928,818.6884096502326,-3859.713260620367,-3979.65372214932,2.2233705236576498,0.0
1657000020.6668928,1203.5876933899708,-4336.225133674685,-4410.348080846481,0.21878414740785956,0.0
1657000020.6804187,1220.409763390664,-4318.55410638405,-4428.2061031349,-0.080407849047333,0.0
1657000020.6804187,749.4217225708999,-4684.348111200146,-4776.478676658589,3.386479409877211,0.0
1657000020.6961532,818.0077478582971,-4531.66295560915,-4562.668596191797,6.434497873764485,0.0
1657000020.6961532,1201.9383975095116,-4985.7765678288415,-4982.595782916527,1.5501885316334665,0.0
1657000020.6968818,1226.2851462210529,-4965.24825697206,-4982.042277723085,4.740323193836957,0.0
1657000020.6968818,763.8053778004833,-5342.987502246629,-5326.851703887805,6.898245468270034,0.0
1657000020.7104294,816.0891791810282,-5190.436983054038,-5108.003978180699,13.439330490771681,0.0
1657000020.7104294,1201.2876549172215,-5616.733219403308,-5519.542569304816,7.45175066171214,0.0
1657000020.7261417,1237.729240085464,-5560.084954774473,-5443.757236602716,5.357406686525792,0.0
1657000020.7261417,777.1530807423405,-5892.8406833820045,-5737.236535875592,9.4301577382721,0.0
1657000020.7268572,818.4714954528026,-5634.005947348662,-5402.175158945378,8.727056546602398,0.0
1657000020.7268572,1210.1399981123395,-6001.36884019617,-5728.915258474182,13.08777989493683,0.0
1657000020.7403913,1227.283699509222,-5939.615612127818,-5643.424885387067,10.084640230517834,0.0
1657000020.7403913,778.1067552310415,-6316.610617311206,-5974.23586601764,11.681577511597425,0.0
1657000020.7724545,813.8676786073484,-6107.273457191419,-5683.024816067889,11.546941113192588,0.0
1657000020.7724545,1208.9357503266074,-6532.795534249861,-6056.289271045476,11.318807215895504,0.0
1657000020.7731936,1230.0961042759009,-6493.717319612857,-6000.695658204146,9.104786442127079,0.0
1657000020.7731936,786.3083558338694,-6894.273694517091,-6349.693772319239,11.950850308407098,0.0
1657000020.7739272,813.5984058105387,-6718.449777900241,-6090.144715394359,12.941923796664923,0.0
1657000020.7739272,1212.9711023787968,-7130.2800812209025,-6450.274641727563,13.540307789575309,0.0
1657000020.7746763,1223.0912716588937,-7101.800743058324,-6398.578004640061,12.803547498304397,0.0
1657000020.7746763,784.9545120499097,-7566.709576500114,-6824.827492239885,15.010088472161442,0.0
1657000020.785404,814.7727343966253,-7386.139726839494,-6559.657365681604,15.556113865692168,0.0
1657000020.785404,1205.057474072557,-7826.411969323177,-6957.253609770909,11.84613310964778,0.0
1657000020.8004134,1223.4764813543297,-7805.244135573972,-6916.08853095863,11.644178512040526,0.0
1657000020.8004134,780.9415993974544,-8273.795631572604,-7352.675102035981,12.863385897595435,0.0
1657000020.816076,806.2158432980068,-8095.054592990316,-7105.187222468201,13.559007289353758,0.0
1657000020.816076,1206.7254694527946,-8547.537608829327,-7503.112577753607,14.033974583726376,0.0
1657000020.8168228,1223.1099711586721,-8563.256408343092,-7505.595871324185,10.447410526219755,0.0
1657000020.8168228,784.1317340596579,-8086.078833096661,-7988.239310355857,11.539461313281208,0.0
1657000020.8304105,805.5239618062042,-7928.225135766901,-7755.639972511679,12.983062696177512,0.0
1657000020.8304105,1188.2241843719967,-8390.327174291946,-8184.939348525368,10.383832226973027,0.0
1657000020.8461328,1209.5042151198722,-8429.166035331786,-8208.496978346258,14.119992282707244,0.0
1657000020.8461328,791.8957663676701,-8008.722742413171,-7774.900457283482,11.217829917091876,0.0
1657000020.846835,804.6189060169272,-7875.36538979318,-7576.311769636348,14.333166580181569,0.0
1657000020.846835,1194.1332263019867,-8363.983319004066,-8037.318017474376,11.644178512040526,0.0
1657000020.8604443,1204.3468930809759,-8402.369652149267,-8086.501441791654,10.077160430606455,0.0
1657000020.8604443,785.2686636461876,-8001.968483093195,-7681.2197032934055,13.394451691303402,0.0
1657000020.876094,809.3835385604762,-7910.2736159795895,-7533.071046348661,15.047487471718341,0.0
1657000020.876094,1194.0135495034046,-8397.339486708865,-7997.910691641271,14.374305479694158,0.0
1657000020.876824,1206.8638457511552,-8498.574838609435,-8109.060518324375,11.89475180907175,0.0
1657000020.876824,808.1082326755859,-8145.9134924877435,-7762.173577734269,10.64936512382701,0.0
1657000020.89042,807.7155431802385,-8020.9297758685425,-7602.049761131406,9.06738744257018,0.0
1657000020.89042,1201.9907561088912,-7557.386005910579,-7128.838349787984,10.024801831226796,0.0
1657000020.906097,1214.0743728657253,-7634.334447498899,-7233.260096450802,10.320253927726299,0.0
1657000020.906097,810.4157509482466,-7283.356056357268,-6880.063944635447,11.4684032141231,0.0
1657000020.906826,802.378705943469,-7167.41167793097,-6731.982605889905,10.66058482369408,0.0
1657000020.906826,1193.7592363064177,-7646.260988457594,-7220.110608206596,11.913451308850199,0.0
1657000020.9204082,1202.970609897282,-7738.7599340616725,-7332.745175172109,13.06908039515838,0.0
1657000020.9204082,805.4491638070904,-7413.92718351027,-7013.223082557786,12.003208907786757,0.0
1657000020.9360836,803.8110876264982,-7290.229992475826,-6863.739281328861,12.844686397816986,0.0
1657000020.9360836,1193.792895406019,-7738.479441564996,-7312.699311409611,10.739122722763568,0.0
1657000020.9368243,1202.5704406020232,-7850.9718923321925,-7448.708253098186,11.389865315053612,0.0
1657000020.9368243,817.2111491677351,-7522.776971720625,-7150.540989230853,10.342693327460438,0.0
1657000020.9504201,798.1077401940711,-7395.22768373182,-6991.763536612038,7.9902962553314865,0.0
1657000020.9504201,1190.1090939496644,-7879.44375069486,-7471.020496233832,12.425817602779716,0.0
1657000020.9660957,1203.2735417936929,-7953.867759813089,-7580.958595331293,11.49458251381293,0.0
1657000020.9660957,816.6987828738056,-7727.90674439026,-7373.001458295155,10.881238921079785,0.0
1657000020.9668255,802.2253700452857,-7673.053631740157,-7314.965690782759,9.564794136676937,0.0
1657000020.9668255,1189.2414371599443,-7279.281435355544,-6930.094456292689,12.089226606767625,0.0
1657000020.980409,1196.9867699681781,-7562.522758499719,-7270.417872460559,9.44885723805055,0.0
1657000020.980409,815.1654238919728,-7901.967298178002,-7674.151292377152,9.643332035746425,0.0
1657000021.0124583,791.5217763721012,-7444.702820245642,-7286.123582324479,6.292381675448269,0.0
1657000021.0124583,1181.1108946562745,-7357.202250932343,-7314.928291783202,5.361146586481482,0.0
1657000021.0132,1180.8079627598636,-7714.2168406024575,-6828.731947793625,-1.329534434247762,0.0
1657000021.0132,798.7697024862282,-7596.933577992022,-6852.420474112965,-5.551881484221667,0.0
1657000021.0139496,786.9441388263367,-7541.149230252951,-6878.158465608023,-2.455244320910424,0.0
1657000021.0139496,1164.726392950397,-7051.792670800816,-6472.317612066399,-6.090427077841014,0.0
1657000021.0146995,1171.6788669680245,-7177.367291613016,-6712.520166520495,-10.847579821478575,0.0
1657000021.0146995,803.9270245251246,-6921.9096852396615,-6546.539666587021,-8.921531344298273,0.0
1657000021.02538,773.6936732833274,-6732.165860987734,-6415.830163135659,-5.780015381518751,0.0
1657000021.02538,1165.859582636971,-7122.674994661007,-6857.396411004011,-8.22590995253995,0.0
1657000021.0575638,1166.3046307316981,-7172.000535176601,-6982.256710924674,-7.904278556350619,0.0
1657000021.0575638,812.1323650279082,-6876.425021978561,-6752.0845681517385,-11.004655619617552,0.0
1657000021.0578935,779.1240080189891,-6646.342636804562,-6535.301267220173,-7.0216621668078005,0.0
1657000021.0578935,1162.9125414718874,-7032.7341406266205,-6936.005368172657,-2.533782219979912,0.0
1657000021.058335,1167.0750501225702,-7064.209138653707,-7028.781066373456,-7.994036155287176,0.0
1657000021.058335,814.49972169986,-6761.602613538969,-6762.3842526297085,-9.650811835657805,0.0
1657000021.070474,788.1820457116701,-6533.637011739891,-6532.152271457482,-0.9443247388117015,0.0
1657000021.070474,1168.499952005688,-6863.709362129215,-6878.650262452196,-4.459830697160214,0.0
1657000021.0861073,1155.126069764141,-6901.856341677252,-6941.4955413076095,-4.534628696274012,0.0
1657000021.0861073,824.6872091791593,-6602.518489123788,-6684.770108849276,-6.696290870662779,0.0
1657000021.0868428,793.0925343534909,-6365.09468033677,-6420.624714878853,-2.2794690229929984,0.0
1657000021.0868428,1158.9033687193878,-6696.22916231351,-6747.626607404556,-2.1186533248983324,0.0
1657000021.100451,1161.0650308937766,-6733.014818277676,-6805.535218318459,-3.951204303186387,0.0
1657000021.100451,820.9024304240011,-6451.781821409706,-6553.611817403231,0.8358676400966942,0.0
1657000021.11609,797.1278864056803,-6207.794488200452,-6271.499944045674,1.7895421287976205,0.0
1657000021.11609,1163.9223144599237,-6527.944884007331,-6581.694726170506,1.5763678313232958,0.0
1657000021.1168303,1152.567978194449,-6559.345084035303,-6637.550132008735,1.568888031411916,0.0
1657000021.1168303,845.0173053382896,-6301.269547692966,-6402.747993090656,-1.2734359349124134,0.0
1657000021.1304088,788.5822150069289,-6045.954057517927,-6102.8753348435275,1.9653174267150462,0.0
1657000021.1304088,1163.6680012629367,-6346.182006260846,-6385.824945791159,1.090180837083608,0.0
1657000021.146108,1157.3737496375106,-6394.120043892879,-6447.282721763011,-1.8755598277784884,0.0
1657000021.146108,839.9983595977537,-6147.739174711984,-6198.171725614462,-1.7446633293293417,0.0
1657000021.1468234,794.9961434309371,-5891.597166646738,-5913.34842478903,1.1014005369506776,0.0
1657000021.1468234,1161.7045537861995,-6196.903899529483,-6190.871440900955,0.6937514417804778,0.0
1657000021.1604052,1153.7647461802699,-6246.315457744058,-6259.801536984276,2.2308503235690296,0.0
1657000021.1604052,843.371749357786,-5999.171648972202,-6020.118828624021,1.2210773355327547,0.0
1657000021.1925051,805.6997371041216,-5741.922630520072,-5718.3238617996685,5.604240083601326,0.0
1657000021.1925051,1165.9343806360848,-6052.3904253416695,-6013.304730904754,4.385032698046416,0.0
1657000021.1932347,1156.9249616428278,-6092.6728877644055,-6062.327339523938,3.83152750460431,0.0
1657000021.1932347,852.7289790469222,-5864.404354068916,-5831.399736959953,3.618353207129985,0.0
1657000021.1939812,803.4296178310178,-5609.010325994808,-5543.064670076128,5.907171980012208,0.0
1657000021.1939812,1165.9642998357303,-5885.527309018653,-5803.653419188689,6.468156973365694,0.0
1657000021.1947308,1153.315958185587,-5964.865546678659,-5859.527524526697,4.684224694501609,0.0
1657000021.1947308,857.2392983934842,-5728.410371980164,-5661.058513678145,4.2466563996858895,0.0
1657000021.2054503,804.9143581134267,-5477.2573904558085,-5366.997659962159,10.178137729410082,0.0
1657000021.2054503,1168.0025453115813,-5777.242245701607,-5623.883908118587,8.457783749792725,0.0
1657000021.2374732,171.4519735686481,-1885.0012052166276,-2728.2177487262525,5.731396682094783,0.0
1657000021.238213,-114.04076934885234,-1701.1065844953991,-2547.184151471127,4.601946895476431,0.0
1657000021.238213,-166.46668692771345,-1421.4443456088193,-2225.451777982991,6.311081175226718,0.0
1657000021.2389476,182.35378193948418,-1710.5199126838706,-2495.902643278707,6.610273171681911,0.0
1657000021.2389476,166.1936742309481,-1758.8880388108082,-2546.481050279457,6.610273171681911,0.0
1657000021.239698,-113.90987285040319,-1561.095949854236,-2367.4146404010244,4.463570597115904,0.0
1657000021.239698,-166.0403383327648,-1273.0862542665564,-2019.4730480234139,8.420384750235826,0.0
1657000021.2504547,182.6417542360723,-1580.7042453219183,-2302.3590806717984,9.815367433708161,0.0
1657000021.2504547,162.77166577149183,-1616.8840374932624,-2347.9372414317913,6.25498267589137,0.0
1657000021.2817917,-109.89322029799223,-1446.0304479175247,-2182.637403290253,7.5041092610917985,0.0
1657000021.2817917,-162.0723044797778,-1134.9081706036814,-1846.113725477364,8.869172744918615,0.0
1657000021.2825584,183.56176962517202,-1392.2768658543937,-2073.3425669851713,11.49458251381293,0.0
1657000021.2825584,164.0806307559833,-1456.5507864928804,-2132.369407985825,10.27911502821371,0.0
1657000021.2832532,-109.09288170747459,-1292.6721103345044,-1964.100089279469,8.341846851166338,0.0
1657000021.2832532,-158.47078082244843,-1027.5057236761786,-1659.2982428907417,8.951450543943793,0.0
1657000021.2954426,184.80715631041676,-1328.3208367121406,-1898.4760647569783,10.574567124713212,0.0
1657000021.2954426,157.98833372816443,-1400.3363502589054,-1975.3983270456083,9.617152736056596,0.0
1657000021.311813,-100.27793751191348,-1225.8812370258383,-1812.1965727792121,9.276821840088814,0.0
1657000021.311813,-160.80821829475462,-975.7529880893417,-1528.5962192392908,11.704016911331564,0.0
1657000021.3125553,186.14604049455374,-1245.579290092457,-1782.337211532984,7.519068860914558,0.0
1657000021.3125553,155.183408761397,-1343.6731260302477,-1890.8915476468392,10.484809525776654,0.0
1657000021.325442,-96.10794906131923,-1195.2813755883835,-1746.7071846551262,7.201177364680916,0.0
1657000021.325442,-164.20404745452106,-917.0515183848329,-1444.9757961300202,8.981369743589312,0.0
1657000021.3410852,180.36041526310146,-1189.5406291563995,-1692.811486393679,10.66806462360546,0.0
1657000021.3410852,157.04587893933058,-1265.7747498531826,-1791.731840221677,12.321100404020399,0.0
