timestamp,TP9,AF7,AF8,TP10,noise
1656996942.0224333,218.09226591605693,262.6082950886339,-62.10851856414229,-4.465440547093749,0.0
1656996942.0224333,239.50319316238165,480.1994144106284,-50.499869101680815,-4.932928041554987,0.0
1656996942.0224636,5.190981138497591,-0.8489572899416089,1.854990378022194,-3.463147358968854,0.0
1656996942.0224636,-10.07155058067292,-249.88889533933252,-24.11113501433283,-4.330804148688912,0.0
1656996942.0224855,220.8485721834004,-692.6089023440145,-58.46959590725601,-2.501993070356548,0.0
1656996942.0224855,238.02593267988414,-498.86338513949886,-50.937437396496534,-2.128003074787557,0.0
1656996942.0225067,-7.079630616120994,-14.335036530159414,5.931481329724193,-3.4818468587473035,0.0
1656996942.0225067,-15.31863021850586,-253.65871449466795,-21.253851448185742,-2.737606767565012,0.0
1656996942.025122,226.3312655184418,-714.9922035788186,-58.563093406148255,-4.2859253492206335,0.0
1656996942.025122,243.8975756103173,-498.4744355441071,-53.55536736547947,-3.7585994554683566,0.0
1656996942.0407689,-4.091450551524758,-981.7929265177809,8.88974219467491,-2.569311269558966,0.0
1656996942.0407689,-15.228872619569302,-1240.9717333470471,-16.706133102066815,-7.206787214614451,0.0
1656996942.0415633,226.08069222141057,-1674.730940057896,-59.26619459781796,-4.461700647138059,0.0
1656996942.0415633,243.31789111718535,-1470.1883316813037,-54.6922969520092,-4.233566749840975,0.0
1656996942.0550723,-11.481492863968015,-985.8768972693942,5.927741429768503,-3.6725817564874887,0.0
1656996942.0550723,-20.86864175274968,-1245.4147344944067,-19.76537126582116,-1.8699499778449535,0.0
1656996942.070789,228.2984528951347,-1682.8053840622306,-59.92815688997507,-3.0330588640645146,0.0
1656996942.070789,247.59259676653892,-1483.8875852189958,-52.164124581962824,-4.951627541333437,0.0
1656996942.0715823,-5.336837236769497,-1948.626253212802,6.585963821969926,-3.8333974545821548,0.0
1656996942.0715823,-23.471612121909857,-2220.0794116966426,-22.738591730594635,-4.199907650239766,0.0
1656996942.0850544,223.8853709474206,-2686.035417126026,-63.368864849209785,-6.260592525824904,0.0
1656996942.0850544,247.1550284717232,-2457.9725779281,-55.41783754341304,-5.310657937079668,0.0
1656996942.1008077,-2.0232858760282397,-2936.728390955832,8.149242003448308,-4.760892643593252,0.0
1656996942.1008077,-21.452066145837307,-3207.725281645078,-19.76911116577685,-1.5370988817885518,0.0
1656996942.101574,221.2524813786149,-3648.03305317834,-59.43075019586831,-1.290265484713018,0.0
1656996942.101574,245.78996498789638,-3429.2040269710124,-56.02370133623481,-4.158768750727177,0.0
1656996942.1150315,-7.797691407613456,-2941.347167401109,5.64350903313607,-4.297145049087703,0.0
1656996942.1150315,-20.027164262719452,-3191.901764932554,-21.115475149825215,-4.910488641820848,0.0
1656996942.130766,224.71188883762807,-3650.329351751134,-55.83670633845031,-5.744486331939697,0.0
1656996942.130766,248.01894536148757,-3434.6530612064525,-59.21009609848261,-4.772112343460321,0.0
1656996942.1315608,-1.8736898778006434,-3906.4975391160697,9.877075782977045,-6.03245862852782,0.0
1656996942.1315608,-17.3045170949772,-4175.246749931946,-19.27170447167009,-6.750519420020282,0.0
1656996942.1450331,221.07670608069748,-4634.515814240556,-59.12033849954605,-3.466887258924544,0.0
1656996942.1450331,246.20135398302227,-4408.730574115645,-52.26510188076645,-0.6245632926002145,0.0
1656996942.1607652,-0.5460253935307264,-3923.158793418668,9.933174282312393,-0.2543131969869137,0.0
1656996942.1607652,-20.427333557978272,-4178.257369396277,-13.68429393786937,-6.324170825071633,0.0
1656996942.1615565,227.64397040288895,-4623.359692672733,-56.63704492896795,-4.940407841466367,0.0
1656996942.1615565,246.24623278249055,-4420.470120076556,-56.32663323264569,-3.6127433571964502,0.0
1656996942.175058,-1.7016544798389077,-4901.353936179075,3.5940438574180007,-4.734713343903422,0.0
1656996942.175058,-21.33986914716661,-5157.840015040245,-20.711565954610705,-4.41682184766978,0.0
1656996942.1907644,345.7238317038864,-4880.417976227123,-42.859253492206335,-4.00917275249958,0.0
1656996942.1907644,418.88375463709235,-4677.57702233037,-47.646325435489416,-5.108703339472413,0.0
1656996942.1915555,184.87821440957487,-5166.02665604325,4.742193143814802,-3.867056554183364,0.0
1656996942.1915555,145.79625987261534,-5477.964231547434,-23.052743326872587,-4.633736045099795,0.0
1656996942.2050512,376.8397993352264,-5813.925054416992,-59.06050010025501,-6.971173517405987,0.0
1656996942.2050512,424.1009150752798,-5655.873142389581,-52.83356667403132,-4.719753744080663,0.0
1656996942.2207656,161.98254688084126,-6063.668093658052,11.129942268133163,-1.9073489774018526,0.0
1656996942.2207656,149.30428603105247,-6438.114357021637,-23.972758715972304,-3.9268949534744024,0.0
1656996942.2214737,395.35604401584715,-5966.097843714058,-57.15315112285316,-4.140069250948727,0.0
1656996942.2214737,434.07522825710475,-5780.019121418707,-54.79701415076852,-2.0793843753635883,0.0
1656996942.2350411,151.8100190013647,-6173.351879558526,8.42225470021367,-1.0658714873716235,0.0
1656996942.2350411,135.4741359949112,-6606.308877728879,-17.484032292850316,-3.377129659987986,0.0
1656996942.2507863,365.85197326540947,-6974.791870613117,-60.41060398425907,-2.457114270888269,0.0
1656996942.2507863,397.5999839892611,-6773.6974499956705,-58.43219690769911,-3.0330588640645146,0.0
1656996942.251475,127.08180049434304,-7245.702743603382,7.008572516962886,-8.713966896757483,0.0
1656996942.251475,128.20377048105001,-7470.938218434807,-10.677414373494685,-5.6547287330031395,0.0
1656996942.2977915,343.19565933384,-7874.340657205321,-54.531481253914535,-3.1901346622034907,0.0
1656996942.2977915,381.4136969810352,-7844.694470256567,-55.0625470476225,-4.398122347891331,0.0
1656996942.2985668,140.34348573721945,-8305.150952801108,6.787918419577181,-5.901562130078673,0.0
1656996942.2985668,128.01677548326552,-8522.902887821198,-13.033551345579326,-4.117629851214588,0.0
1656996942.2992673,349.8003226555884,-8932.648196916562,-58.23024231009185,-3.018099264241755,0.0
1656996942.2992673,385.12741763703525,-8762.019001338165,-54.987749048508704,-5.860423230566084,0.0
1656996942.3000095,126.1692649051547,-9222.019216088112,8.47461329959333,-4.794551743194461,0.0
1656996942.3000095,104.92289325688034,-9515.8182768072,-16.05539050977677,-2.6815082682296634,0.0
1656996942.3107955,349.5310498587787,-9988.375205658376,-61.99632156547159,-4.300884949043393,0.0
1656996942.3107955,371.7610151953995,-9715.05209719669,-49.44895721413195,0.02617929968982935,0.0
1656996942.3115656,117.48895710799843,-9370.276330131572,7.599476709961891,-3.990473252721131,0.0
1656996942.3115656,91.49665241595358,-9592.340369800571,-16.11148900911212,-4.293405149132013,0.0
1656996942.325232,323.23955317027867,-10039.417360253632,-58.521954506635666,-2.6366294687613845,0.0
1656996942.325232,350.058375752531,-9818.082601075992,-62.78918035607785,-3.0330588640645146,0.0
1656996942.3408377,112.59716796595603,-9395.60667253146,10.224886478856206,-5.164801838807762,0.0
1656996942.3408377,92.1174758085981,-9705.382585861254,-15.034397821873426,-5.665948432870209,0.0
1656996942.3415728,328.20988021139055,-10064.310134358704,-60.63125808164477,-2.655328968539834,0.0
1656996942.3415728,357.03328916989267,-9909.235182696022,-55.369218843989074,-2.980700264684856,0.0
1656996942.3550615,107.07333573140204,-10325.168156268075,11.178560967557132,-5.759445931762457,0.0
1656996942.3550615,47.40323193836957,-10663.120475864038,-21.582962644286454,1.163108886219561,0.0
1656996942.370787,323.91273516230285,-11078.834665288683,-45.256529363803566,-1.9597075767815113,0.0
1656996942.370787,345.4134200075641,-10858.81261099549,-55.63849164079875,-3.107856863178313,0.0
1656996942.3715885,90.65517492592335,-11345.519451329019,-1.0621315874159336,-1.4436013828963041,0.0
1656996942.3715885,86.2607924779877,-11641.66716922028,-16.95296649914235,-5.673428232781589,0.0
1656996942.385064,318.4450014270842,-12101.687953419983,-58.536914106458426,-5.523832234553993,0.0
1656996942.385064,338.5394838890061,-11874.287076514214,-55.320600144565105,-3.298591760918498,0.0
1656996942.4007907,106.47869163844734,-12320.550638726912,8.983239693567157,-6.4475875236094,0.0
1656996942.4007907,64.26644083857536,-12725.226513432339,-22.90314732864499,-2.7899653669446707,0.0
1656996942.4015632,280.82160787284374,-13097.067936476786,-52.66527117602527,-3.1190765630453825,0.0
1656996942.4015632,335.3418694268912,-12811.470476360526,-49.18342431727797,-3.747379755601287,0.0
1656996942.4150355,69.0310733821243,-12472.15870313067,-0.1570757981389761,-3.9642939530313015,0.0
1656996942.4150355,40.26376292295754,-12664.109068356454,-19.926186963915825,-3.264932661317289,0.0
1656996942.4307756,314.09549777861685,-13064.029660268221,-52.160384682007134,-1.813851478509605,0.0
1656996942.4307756,331.2952976748347,-12907.814039119054,-59.21009609848261,-1.8026317786425352,0.0
1656996942.431563,90.31484402995557,-13297.792106998619,4.44300114735961,-2.9133820654824376,0.0
1656996942.431563,32.039722920395434,-13607.855992625002,-19.499838368967175,-4.977806841023266,0.0
1656996942.4450736,276.08315462898463,-13178.582795911003,-57.69169671647251,-6.099776827730238,0.0
1656996942.4450736,318.16824883036315,-12779.079202844296,-55.81800683867186,-3.2462331615388393,0.0
1656996942.460774,77.32243158388883,-12416.015324995853,5.748226231895387,-3.8333974545821548,0.0
1656996942.460774,44.523508972488344,-12692.023681625724,-17.77574448939413,0.3029318964108825,0.0
1656996942.4615023,291.93285064119846,-12210.863112926483,-55.64971134066582,-2.1541823744773865,0.0
1656996942.4615023,346.13896059896797,-11945.779004067183,-54.99896874837577,-2.2028010739013553,0.0
1656996942.491406,75.35898410715163,-11505.407654234674,8.287618301808834,-2.80866486672312,0.0
1656996942.491406,30.850434734486043,-11806.267646070104,-13.949826834723353,-6.0960369277745485,0.0
1656996942.4921322,279.733296985738,-12256.908761180937,-53.4693496664986,-5.441554435528815,0.0
1656996942.4921322,331.2354592755437,-12010.845783496276,-59.759861391969025,-1.4024624833837152,0.0
1656996942.4928906,75.32532500755042,-12481.276579222642,5.153582138940692,-3.5940438574180007,0.0
1656996942.4928906,30.712058436125517,-12675.814955217764,-14.293897630646825,-4.057791451923549,0.0
1656996942.505096,272.99399726558477,-12305.71445560269,-55.12612534686923,-6.290511725470424,0.0
1656996942.505096,307.1056247614324,-12000.071131723933,-55.67589064035565,-4.3270642487332225,0.0
1656996942.5207524,69.92864937148988,-12461.80666005332,5.108703339472413,-5.8155444310978055,0.0
1656996942.5207524,19.185686772689223,-12843.287675233558,-8.257699102163315,-1.20424778573215,0.0
1656996942.5214741,266.2846167450771,-13192.715877843555,-50.36149280332029,-4.02413235232234,0.0
1656996942.5214741,304.38671749364585,-13033.549475629348,-54.939130349084735,-3.294851860962808,0.0
1656996942.5351033,52.66901107598096,-12557.424682220444,5.729526732116938,-5.8940823301672935,0.0
1656996942.5351033,35.40937278047204,-12740.773277548142,-11.574990362860262,-4.274705649353564,0.0
1656996942.550501,265.042969959788,-12262.787883911282,-55.66093104053289,-8.194120802916586,0.0
1656996942.550501,293.60832582134753,-12037.10736098513,-61.54379367083311,-6.264332425780594,0.0
1656996942.56573,37.30550205800682,-12493.08718328271,4.985286640934646,-3.1676952624693513,0.0
1656996942.56573,20.98831855133176,-12729.310484183952,-18.789257377386093,-5.018945740535855,0.0
1656996942.5664644,256.5683566601947,-12280.668345599435,-60.941669777967036,-2.01206617616117,0.0
1656996942.5664644,278.5327890999615,-11980.870485351421,-57.91983061376959,-2.4346748711541295,0.0
1656996942.5807652,48.18861092906445,-11510.909047069494,5.3742362363263965,-5.680908032692969,0.0
1656996942.5807652,26.874921081587672,-11805.777719175909,-14.944640222936869,0.03739899955689907,0.0
1656996942.5814831,264.392227367498,-11333.469493671786,-57.42242391966283,-2.621669868938625,0.0
1656996942.5814831,286.30056130792946,-11109.786077321973,-53.64886486437172,-0.923755289055407,0.0
1656996942.5950723,70.19044236838818,-11443.886299963575,10.84944977145642,-3.7585994554683566,0.0
1656996942.5950723,11.387995365075767,-11821.601235888433,-19.885048064403236,-3.8782762540504336,0.0
1656996942.61074,265.0242704600096,-12240.52425947506,-59.6588840931654,-4.2036475501954556,0.0
1656996942.61074,254.69092688243836,-12155.0376262879,-59.61400529369712,-4.992766440846026,0.0
1656996942.611466,20.50587145704776,-12606.735263136216,5.546271634288132,-4.0054328525438905,0.0
1656996942.611466,26.52337048575282,-12953.0163399335,-14.593089627102017,-2.5954905692487955,0.0
1656996942.6250665,253.84570949245244,-13296.55046021333,-54.68107725214213,-2.124263174831867,0.0
1656996942.6250665,263.0570830833167,-13034.764943114948,-67.60991139896214,-3.459407459013164,0.0
1656996942.640782,47.15639854129404,-12557.342404421419,10.774651772342622,-4.42056174762547,0.0
1656996942.640782,25.999784491956234,-12863.030607099645,-15.71505961380899,-5.729526732116938,0.0
1656996942.6414683,255.0050784787163,-12433.648953286931,-60.90427077841014,-5.778145431540906,0.0
1656996942.6414683,294.10947241541,-12089.49961946439,-50.952396996319294,-3.3920892598107457,0.0
1656996942.655052,29.32081565260887,-11615.48038973054,5.258299337700009,-6.45132742356509,0.0
1656996942.655052,-6.8627164186909795,-11892.146968752611,-21.459545945748687,-4.02787225227803,0.0
1656996942.670472,264.1603535702452,-12256.355255987495,-55.12238544691354,-0.8564370898529887,0.0
1656996942.670472,285.78071521408856,-12105.293216977268,-50.63076560012996,-3.0330588640645146,0.0
1656996942.685756,54.64741815254092,-12460.830546164885,-1.20424778573215,-3.61648325715214,0.0
1656996942.685756,-2.576791069470346,-12749.913593039848,-13.70673333760351,-3.575344357639551,0.0
1656996942.686474,238.01845287997276,-12394.806352347136,-60.8070333795622,-2.3935359716415405,0.0
1656996942.686474,292.3666790360585,-12145.968368895352,-60.05157358851284,-2.849803766235709,0.0
1656996942.7007325,29.990257744677365,-12579.067483264022,10.770911872386932,-2.80866486672312,0.0
1656996942.7007325,6.312951125204563,-12886.47977982182,-14.641708326525986,-6.185794526711106,0.0
1656996942.7014575,233.7437472306192,-13295.697763023432,-59.95059628970921,-3.900715653784573,0.0
1656996942.7014575,302.16521691996604,-13148.34570476925,-56.85769902635366,-0.6544824922457337,0.0
1656996942.7150834,42.73957669362426,-13496.463072444778,7.150688715279102,-3.051758363842964,0.0
1656996942.7150834,-32.98965750914067,-13908.89923955826,-21.511904545128345,-2.4346748711541295,0.0
1656996942.730732,236.94510159268975,-14368.000008368865,-63.58203914668411,-4.600076945498586,0.0
1656996942.730732,271.9767444776371,-13991.466880830005,-55.12238544691354,-2.647849168628454,0.0
1656996942.7314527,17.77948438934982,-13588.318755256478,10.04911118093878,-3.751119655556977,0.0
1656996942.7314527,-21.519384345039725,-13794.398462514859,-17.944039987400174,-2.2775990730151534,0.0
1656996942.745042,224.64831053838134,-13521.87569264369,-59.91319729015231,-2.857283566147089,0.0
1656996942.745042,279.6510191867128,-13060.15138401417,-57.09705262351781,-2.128003074787557,0.0
1656996942.7607224,28.61771446093917,-12606.312654441223,10.146348579786718,-2.584270869381726,0.0
1656996942.7607224,11.68344746157527,-12819.37101501692,-14.712766425684094,-0.5422854935750365,0.0
1656996942.761452,247.95910696219653,-12447.292108325288,-68.79919958487153,-1.3201846843585372,0.0
1656996942.761452,252.13657521270216,-12276.823728444986,-60.582639382220805,-3.455667559057474,0.0
1656996942.7750528,34.852127687074244,-12497.866775426082,5.561231234110892,-6.084817227907479,0.0
1656996942.7750528,-24.331789111718535,-12880.170568596572,-14.11064253281802,-3.3247710606083274,0.0
1656996942.7904735,245.65906848944724,-13351.044542467687,-66.12143121659756,-0.1533358981832862,0.0
1656996942.7904735,269.03344321250916,-13071.389783381019,-62.07859936449677,-3.0704578636214137,0.0
1656996942.8057156,20.97709885146469,-13528.233522568364,5.658468632958829,-2.329957672394812,0.0
1656996942.8057156,8.190380902960896,-13879.45874710707,-8.751365896314383,-6.077337427996099,0.0
1656996942.806454,264.6166213648394,-13421.99418452708,-55.64223154075444,-7.408741812221706,0.0
1656996942.806454,290.8856786536053,-13158.858563544694,-55.27198144514114,-2.3897960716858506,0.0
1656996942.8208053,14.439753728918731,-13581.17554634111,7.24792611412704,-1.006033088080585,0.0
1656996942.8208053,8.986979593522847,-13959.447727359366,-11.870442459359765,-3.496806458570063,0.0
1656996942.8214543,229.43164258170873,-13530.148351345677,-63.23796835076064,-4.719753744080663,0.0
1656996942.8214543,275.62314693443477,-13158.234000252094,-52.968203072436154,-2.6067102691158652,0.0
1656996942.8514104,26.351335087791085,-13586.194492081646,9.28617158997804,-2.329957672394812,0.0
1656996942.8514104,-8.242739502340555,-13917.190597760025,-20.490911857225,-4.2073874501511455,0.0
1656996942.8521538,248.01520546153188,-14398.805564303882,-63.22300875093788,-3.4706271588802338,0.0
1656996942.8521538,277.37342011369765,-14068.12361022178,-59.15399759914726,-4.873089642263949,0.0
1656996942.852903,30.375467440113425,-13657.39470743807,8.235259702429175,-1.7166140796616673,0.0
1656996942.852903,-32.51469021476805,-13990.7245106888,-16.04043090995401,-4.41308194771409,0.0
1656996942.865104,232.38242364674807,-14439.914544616826,-58.67903030477464,-0.23561369720846415,0.0
1656996942.865104,273.69709845725447,-14190.283702374436,-54.82319345045835,-6.529865322634578,0.0
1656996942.8964548,13.893728335388005,-14624.919915624894,0.09723739884793758,-4.869349742308259,0.0
1656996942.8964548,-14.263978431001306,-14881.84356278088,-15.565463615581393,-5.703347432427108,0.0
1656996942.8971643,246.71746017690748,-14454.537553443573,-59.307333497330546,-2.2663793731480837,0.0
1656996942.8971643,264.62410116475075,-14167.986418838613,-56.87639852613211,-3.3920892598107457,0.0
1656996942.8979104,21.68393994309008,-14560.90404808335,7.7864717077463865,-4.779592143371701,0.0
1656996942.8979104,-27.540623273700476,-14945.623816625215,-15.7113197138533,-2.3187379725277424,0.0
1656996942.910714,235.02653291542083,-15383.784885583911,-60.69857628084719,-0.07853789906948805,0.0
1656996942.910714,290.11151936277747,-15134.546732836869,-58.70146970450878,-2.501993070356548,0.0
1656996942.911464,14.177960732020438,-15553.99521236727,8.568110798485577,-2.861023466102779,0.0
1656996942.911464,-33.92463249806315,-15874.20544657344,-12.229472855105996,-4.270965749397874,0.0
1656996942.9250636,224.98864143434912,-16311.364222344011,-59.778560891747475,-1.4735205825418234,0.0
1656996942.9250636,288.7688952786848,-16207.047192879952,-53.00186217203736,-2.5506117697805166,0.0
1656996942.9407575,38.831381239928305,-16625.702813619748,0.5609849933534861,-2.094343975186348,0.0
1656996942.9407575,-15.602862615138292,-16928.00266693812,-12.214513255283237,-6.802878019399941,0.0
1656996942.94149,245.49451289139688,-17398.790623110253,-54.71473635174334,-4.8917891420423985,0.0
1656996942.94149,293.6158056212589,-17116.170123358723,-57.740315415896475,-6.82531741913408,0.0
1656996942.955737,-83.30627151299268,20.556360106449574,43.496906434651464,8.001515955198556,0.0
1656996942.9564743,-136.86163887847215,-284.2567059821449,30.257660591509193,10.028541731182486,0.0
1656996942.9564743,120.5781144713983,154.39989972067997,-19.288534021470696,10.406271626707166,0.0
1656996942.9700391,163.19427446648479,469.2845163899474,-14.819353574421257,8.966410143766552,0.0
1656996942.9700391,-77.08681788668036,19.12397842342034,40.276852572802454,8.727056546602398,0.0
1656996942.985711,-111.65845307707787,-338.86672513512895,24.056906464975327,9.538614836987108,0.0
1656996942.985711,129.6885107634589,-738.2562512531877,-18.050627136137336,11.591819912660867,0.0
1656996942.9864635,186.56116938963532,-487.92230781912804,-15.593512865249068,10.795221222098917,0.0
1656996942.9864635,-84.53669859841466,-892.736558822915,45.63986910926178,10.469849925953895,0.0
1656996943.0000424,-125.70551731064916,-1332.6871699104086,23.94844936626032,10.312774127814919,0.0
1656996943.0000424,115.99299712572247,-1801.6762342038564,-23.065832976717502,10.185617529321462,0.0
1656996943.015722,163.66176196094602,-1602.3358266656287,-11.393605215009302,8.854213145095855,0.0
1656996943.015722,-75.80029230192304,-1977.8591812164523,43.30617153691128,10.144478629808873,0.0
1656996943.0164692,-143.07735260482877,-2336.811039063614,24.00080796563998,11.771335110533983,0.0
1656996943.0164692,106.59836843702942,-2802.636147994548,-20.118791811633855,8.801854545716196,0.0
1656996943.0300596,192.8741205148399,-2561.5397574510425,-16.951096549164504,9.748049234505743,0.0
1656996943.0300596,-97.77220454160124,-3036.301357326098,40.288072272669524,8.364286250900477,0.0
1656996943.0457876,-105.98128494434059,-3198.766351301223,32.76339356182143,8.166071553248912,0.0
1656996943.0457876,127.9120582845062,-2779.613323867321,-14.329426680225879,5.222770288120955,0.0
1656996943.0465548,177.13288160134107,-2486.057356645353,-24.35609846143052,8.420384750235826,0.0
1656996943.0465548,-80.97257394064218,-2967.479718341492,42.13184295082465,7.4667102615348995,0.0
1656996943.0600743,-142.18725641537458,-3363.78943684604,23.11071177618578,8.450303949881345,0.0
1656996943.0600743,129.2060636691749,-3848.4636415536515,-19.284794121515006,10.525948425289243,0.0
1656996943.0757844,160.43796819914132,-3449.1395636848174,-17.87111193826422,9.86398613313213,0.0
1656996943.0757844,-101.4934049975127,-3930.8536375775,38.83699108986184,11.113112718332559,0.0
1656996943.0765543,-125.66063851118088,-4311.893344562966,26.29710653843358,8.480223149526864,0.0
1656996943.0765543,134.38582510780543,-4725.337414714508,-18.634051529224962,9.112266242038459,0.0
1656996943.1228497,142.01148111745715,-4439.489381301217,-20.526440906804055,9.119746041949838,0.0
1656996943.1228497,-96.93072705157101,-4904.882531787269,42.09818385122344,9.691950735170394,0.0
1656996943.123563,-126.62927259970456,-5293.4656169833615,34.637083439622074,7.732243158388883,0.0
1656996943.123563,130.08494015876204,-5778.386655088048,-11.84239320969209,11.8386533097364,0.0
1656996943.1243095,169.73909938894212,-5431.394997299183,-15.559853765647858,9.329180439468473,0.0
1656996943.1243095,-67.25836080312729,-5816.948763531167,42.35997684812173,10.761562122497708,0.0
1656996943.1250608,-138.92980355396867,-6169.3296171561815,27.239561327267438,9.288041539955884,0.0
1656996943.1250608,109.80720259901136,-5702.31335008936,-16.004901860374957,4.949757591355592,0.0
1656996943.1357384,178.04167729057372,-5477.83707494894,-12.119145806413144,7.148818765301257,0.0
1656996943.1357384,-67.49023460038006,-5865.503884655889,40.30677177244797,7.657445159275085,0.0
1656996943.1365604,-122.46302404906601,-6277.730617371853,26.917929931078106,8.143632153514773,0.0
1656996943.1365604,93.04123109765351,-6732.433263834566,-14.142431682441384,9.015028843190521,0.0
1656996943.1500876,159.14022291451693,-6461.2194589478895,-16.29661405691877,11.419784514699131,0.0
1656996943.1500876,-102.98562507983297,-6815.862952046096,46.698260796722025,10.750342422630638,0.0
1656996943.1657703,-114.78874933999032,-7184.0224435841665,27.325579026248306,11.255228916648775,0.0
1656996943.1657703,123.34190053865314,-6793.674125608988,-16.517268154304475,9.093566742260009,0.0
1656996943.1664934,153.4106961824,-6479.350493933074,-8.805594445671886,8.353066551033407,0.0
1656996943.1664934,-68.89269708376378,-6875.465737639926,47.472420087549835,8.581200448330492,0.0
1656996943.1800942,-145.23527487926185,-7112.388399832882,19.55032701836899,7.728503258433193,0.0
1656996943.1800942,124.2095573283732,-6689.050424348563,-16.808980350848287,7.967856855597347,0.0
1656996943.2428398,168.69940720126033,-6509.853117971681,-17.09321274748072,7.081500566098839,0.0
1656996943.2428398,-74.91393601242453,-6904.715495193377,39.786925678607076,9.961223531980067,0.0
1656996943.2435784,-132.6505115283653,-7146.223274732009,22.426310084294528,9.643332035746425,0.0
1656996943.2435784,95.32257007062435,-6691.604776018299,-19.97667561331764,10.24919582856819,0.0
1656996943.244304,175.46114632114768,-6412.548400924541,-15.185863770078868,10.125779130030423,0.0
1656996943.244304,-71.79859934933484,-6889.187430577353,42.90974214160815,5.334967286791652,0.0
1656996943.2450545,-130.63470545224845,-7200.317187691107,23.1780299753882,9.620892636012286,0.0
1656996943.2450545,115.06550193671137,-6727.212363496423,-20.219769110437483,9.650811835657805,0.0
1656996943.2575538,177.54053069651127,-6402.992956537753,-9.639592135790735,8.016475555021316,0.0
1656996943.2575538,-70.26150046754628,-6879.183198195882,43.096737139392644,9.303001139778644,0.0
1656996943.258279,-133.67898401618004,-7233.875309993513,25.257414350751787,4.691704494412988,0.0
1656996943.258279,101.73649849463254,-7645.800980763044,-19.415690619964153,8.753235846292228,0.0
1656996943.2590268,150.7740667136386,-7410.583712949883,-9.983662931714207,7.9902962553314865,0.0
1656996943.2590268,-73.73212762642652,-7888.135278191883,43.885856030043215,10.331473627593368,0.0
1656996943.2707374,-114.62045384198427,-8188.935431628022,23.08827237645164,7.653705259319395,0.0
1656996943.2707374,116.3894265210256,-7715.2658825400285,-19.019261224661022,11.404824914876372,0.0
1656996943.271466,155.04503246303648,-7392.448938064743,-13.413151191081852,9.613412836100906,0.0
1656996943.271466,-77.05689868703485,-6987.6515166107565,40.9275951650925,10.66806462360546,0.0
1656996943.285735,-141.89554421883076,-7169.4405736569315,20.68351670494303,7.814520957414061,0.0
1656996943.285735,123.9477643314749,-7569.929630361963,-14.30324738053605,6.483116573188454,0.0
1656996943.286553,187.1595533825457,-7468.87005375931,-16.042300859931856,8.435344350058585,0.0
1656996943.286553,-81.1483492385596,-7845.519118196797,38.646256192121655,7.563947660382837,0.0
1656996943.300084,-119.29158888664097,-8307.699694620911,22.875098078977317,7.178737964946777,0.0
1656996943.300084,95.71525956597179,-8643.817593288608,-18.424617131706327,12.100446306634694,0.0
1656996943.3157408,154.68226216733456,-8415.219948397018,-8.528841848950833,8.876652544829994,0.0
1656996943.3157408,-75.12711030989885,-8852.500270916149,41.29410536075011,8.349326651077718,0.0
1656996943.3164642,-120.8735665678978,-9143.112936872989,23.275267374236137,8.068834154400975,0.0
1656996943.3164642,126.62179279979318,-8810.617131312378,-17.227849145885557,5.521962284576148,0.0
1656996943.3465147,147.49043455254287,-8477.507982159033,-9.695690635126084,8.461523649748415,0.0
1656996943.3465147,-54.157491258345544,-8914.017885287292,34.91757593629882,11.000915719661862,0.0
1656996943.3472433,-107.81009602267295,-9259.823994790204,23.469742171932012,11.834913409780711,0.0
1656996943.3472433,118.80540189240128,-9744.400962098967,-16.420030755456537,8.947710643988103,0.0
1656996943.3479364,158.2613464249298,-9400.528380873147,-19.748541716020554,7.3470334629528224,0.0
1656996943.3479364,-52.545594377443194,-9829.741739187855,39.77196607878432,11.416044614743441,0.0
1656996943.3600605,-164.09559035580605,-10217.475867094006,22.186956487130374,6.412058474030346,0.0
1656996943.3600605,74.1809156211093,-9730.679269161541,-19.1763370228,8.210950352717191,0.0
1656996943.3757775,141.96660231798887,-9350.649335164111,-15.48131586657837,6.610273171681911,0.0
1656996943.3757775,-74.03879942279309,-9766.137260641437,42.87234314205125,8.22590995253995,0.0
1656996943.376561,-100.5285108089447,-10204.96964164218,25.709942245390266,11.124332418199629,0.0
1656996943.376561,117.33562120981514,-9724.25038113771,-15.933843761216849,9.228203140664846,0.0
1656996943.4064417,160.84187739435583,-9476.104279177729,-9.145925341639668,10.099599830340594,0.0
1656996943.4064417,-97.23739884793758,-9869.182724120561,38.56023849314079,10.544647925067693,0.0
1656996943.4071624,-116.07153502479196,-10092.873620270286,26.588818734977394,7.9491573558188975,0.0
1656996943.4071624,102.80984978191555,-9636.448749877978,-16.29287415696308,9.02624854305759,0.0
1656996943.4079564,144.6294110864401,-9516.92902709404,-13.181277393829077,11.191650617402047,0.0
1656996943.4079564,-58.39105800818652,-9805.047179780435,44.33090412477031,11.823693709913641,0.0
1656996943.420121,-154.13623677380383,-10209.120930592995,19.628864917438477,11.374905715230852,0.0
1656996943.420121,96.84470935259014,-9722.87035805406,-19.89439781429246,4.912358591798693,0.0
1656996943.452156,185.73091159947217,-9439.516837911215,-11.50580221368,8.816814145538956,0.0
1656996943.452156,-82.53585212212056,-9778.64722599322,37.89827620098367,8.943970744032413,0.0
1656996943.452875,-138.9933818532154,-10177.395359268878,26.40930353710428,6.587833771947771,0.0
1656996943.452875,109.60150810144842,-9706.145525452215,-17.792574039194733,8.872912644874305,0.0
1656996943.4536228,153.5864714803174,-9456.017276515719,-14.172350882086903,10.746602522674948,0.0
1656996943.4536228,-112.89635996241122,-9810.870204011444,40.684501667972654,8.22964985249564,0.0
1656996943.4543865,-147.4754749527201,-10202.138537375722,25.14521735208109,10.821400521788746,0.0
1656996943.4543865,95.9695727629587,-9716.381631630939,-15.52993456600234,8.715836846735328,0.0
1656996943.4650328,156.739207142964,-9326.018354055937,-13.49168909015134,8.532581748906523,0.0
1656996943.4650328,-39.56440163124353,-9802.8219393068,48.714066872838885,7.889318956527859,0.0
1656996943.4800713,-144.1095649925992,-10121.92890302604,19.50544821890071,9.205763740930706,0.0
1656996943.4800713,106.35153503995389,-9751.013105220627,-13.764701786916703,9.691950735170394,0.0
1656996943.5121062,141.7683876203373,-9486.497461154591,-15.821646762546152,7.100200065877289,0.0
1656996943.5121062,-67.65479019843042,-9734.561285315547,38.94170828862116,9.87146593304351,0.0
1656996943.5128524,-118.51742959581316,-10085.969764952082,28.110958016943187,9.572273936588317,0.0
1656996943.5128524,106.57218913733959,-9669.098076491151,-18.6564909289591,9.243162740487605,0.0
1656996943.513601,161.38042298797518,-9424.706834086683,-14.579999977257103,10.720423222985119,0.0
1656996943.513601,-73.702208426781,-9876.587726032827,42.32631774852052,9.314220839645714,0.0
1656996943.5143416,-133.12173892278224,-10184.59466668358,21.12856479967013,7.758422458078712,0.0
1656996943.5143416,99.98622531536967,-9745.130242590327,-17.44850324327126,9.108526342082769,0.0
1656996943.525094,152.45702169369906,-9431.749065703247,-14.037714483682066,10.301554427947849,0.0
1656996943.525094,-51.745255786925554,-9739.91308215214,36.47711421782151,6.408318574074656,0.0
1656996943.5401254,-130.00266235973686,-10124.464555195998,27.677129622083157,11.606779512483627,0.0
1656996943.5401254,101.21665240079165,-9685.284363499377,-8.21843015262857,10.099599830340594,0.0
1656996943.5557945,164.56681775022298,-9421.460600925144,-19.741061916109174,9.123485941905528,0.0
1656996943.5557945,-67.00030770618469,-9755.706679665018,42.81998454267159,10.155698329675943,0.0
1656996943.5565653,-154.77201976627111,-10184.598406583536,23.21168907498941,11.012135419528931,0.0
1656996943.5565653,109.41451310366392,-10597.91906003654,-19.12023852346465,9.590973436366767,0.0
1656996943.570088,163.68046146072447,-10237.044893612154,-12.025648307520896,9.961223531980067,0.0
1656996943.570088,-89.84735653549433,-9786.194344103802,38.17128889774904,9.676991135347635,0.0
1656996943.5857704,-141.37943802494556,-10238.935413039755,23.009734477382153,11.431004214566201,0.0
1656996943.5857704,85.96160048153251,-10696.566401167773,-19.363332020584494,10.64936512382701,0.0
1656996943.586552,153.45931488182396,-10444.710318451747,-9.602193136233836,11.337506715673953,0.0
1656996943.586552,-61.334359273314476,-10765.320721953176,39.409195783082396,10.877499021124095,0.0
1656996943.6328297,-131.1769909458235,-11233.933926301077,25.96425544237718,13.85445938585326,0.0
1656996943.6328297,83.02577901631594,-11626.636511298362,-12.003208907786757,9.931304332334548,0.0
1656996943.6335623,133.6976835159585,-11290.2624294837,-12.807287398260087,7.399392062332481,0.0
1656996943.6335623,-92.72707950137556,-11678.224691287149,39.9627009765245,9.684470935259014,0.0
1656996943.6342907,-119.41126568522304,-11286.838551074266,25.758560944814235,6.011889178771526,0.0
1656996943.6342907,83.82611760683358,-11673.213225346524,-13.027941495645791,6.303601375315338,0.0
1656996943.635033,158.75875311903656,-11388.494641719852,-14.770734874997288,7.691104258876294,0.0
1656996943.635033,-48.8393535213545,-11838.561682187486,38.276006096508354,8.476483249571174,0.0
1656996943.6628308,-134.73737570364028,-12081.984290503431,31.25247397972271,6.793528269510716,0.0
1656996943.6628308,89.12929574400187,-11625.955849506427,-12.010688707698137,10.211796829011291,0.0
1656996943.6635609,137.2879874734208,-11312.114664924797,-15.017568272072822,11.09441321855411,0.0
1656996943.6635609,-53.79846086259931,-11762.065768493805,38.35454399557784,12.048087707255036,0.0
1656996943.664312,-105.06500945519656,-12139.328176524024,23.50714117148891,9.4301577382721,0.0
1656996943.664312,84.5965369977057,-11691.460197230335,-17.714036140125245,9.306741039734334,0.0
1656996943.6650577,169.45860689226538,-11436.346661652904,-14.609919176902622,9.912604832556099,0.0
1656996943.6650577,-65.75866092089564,-11801.865783822257,38.32462479593232,7.893058856483549,0.0
1656996943.6750748,-140.52300093509257,-11997.354094406124,17.725255839992315,9.44137743813917,0.0
1656996943.6750748,111.63601367734373,-11572.647315538023,-13.45055019063875,7.638745659496635,0.0
1656996943.690122,158.68021521996707,-11337.2580123269,-7.780861857812852,11.554420913103968,0.0
1656996943.690122,-93.29554429464042,-10875.87216464337,37.28119270829484,9.198283941019326,0.0
1656996943.705767,-137.6918966686353,-11158.03265670035,24.37105806125328,7.496629461180419,0.0
1656996943.705767,94.20060008391738,-10789.461776167154,-18.005748336669058,8.319407451432198,0.0
1656996943.70656,133.72386281564832,-10416.1861014897,-10.24919582856819,8.588680248241872,0.0
1656996943.70656,-101.91601369250566,-10748.39767465368,44.45806072326377,7.807041157502681,0.0
1656996943.736483,-140.56787973456085,-11098.815080801956,29.102031505201012,9.314220839645714,0.0
1656996943.736483,91.97535961028188,-10740.102576551959,-17.94964983733371,9.819107333663851,0.0
1656996943.737203,150.00738722272217,-10427.772311552428,-13.566487089265138,6.774828769732267,0.0
1656996943.737203,-66.79461320862174,-10701.88827880472,40.44888797076419,10.896198520902544,0.0
1656996943.7379532,-128.577760476619,-10219.087763974909,25.837098843883723,9.42267793836072,0.0
1656996943.7379532,107.44358582701534,-10644.91464287974,-13.708603287581354,10.200577129144222,0.0
1656996943.7500544,152.28498629573733,-10453.64493944589,-17.09321274748072,9.718130034860224,0.0
1656996943.7500544,-68.54114648792893,-10770.642599590123,33.50763365300372,10.933597520459443,0.0
1656996943.766443,-145.02584048174322,-11068.731325558387,22.594605582300574,8.700877246912569,0.0
1656996943.766443,98.40050773415715,-10740.940314142033,-15.87400536192581,8.461523649748415,0.0
1656996943.767177,168.486232903786,-10416.002846391872,-15.144724870566279,8.958930343855172,0.0
1656996943.767177,-70.5868717636913,-10726.448201813735,41.36142355995253,11.326287015806884,0.0
1656996943.780071,-127.72132338676602,-11188.789593935944,21.435236596036702,6.363439774606377,0.0
1656996943.780071,85.77086558379233,-11599.65313311806,-16.880038450006396,9.639592135790735,0.0
1656996943.7958152,156.93742184061557,-11393.857658256311,-9.06738744257018,8.046394754666835,0.0
1656996943.7958152,-55.98630233667791,-11769.814841201995,38.94918808853254,10.67554442351684,0.0
1656996943.7965608,-132.79262772668153,-12077.328115058597,22.35525198513642,10.454890326131135,0.0
1656996943.7965608,83.82611760683358,-11687.955910971854,-16.614505553152412,10.301554427947849,0.0
1656996943.8100924,123.04270854219794,-11293.003776151221,-15.11854557087645,7.298414763528854,0.0
1656996943.8100924,-97.678707042709,-11736.503552296665,41.91866865335032,9.235682940576226,0.0
1656996943.825788,-143.59345879871398,-12111.095671758521,25.19383605150506,8.289488251786679,0.0
1656996943.825788,113.91361275035888,-11697.522575058509,-12.30988070415333,8.614859547931701,0.0
1656996943.8265595,170.66659457795322,-11305.207069706637,-10.623185824137181,8.839253545273095,0.0
1656996943.8265595,-41.269796011038125,-11713.57422566833,37.404609406832606,9.273081940133125,0.0
1656996943.8400595,-140.9942283295095,-12060.221812661272,26.499061136040837,7.242316264193505,0.0
1656996943.8400595,81.75795293133706,-11648.017519345041,-18.114205435384065,11.04579451913014,0.0
1656996943.8557923,155.72943415492773,-11435.64730036119,-14.381785279605538,7.8294805572368205,0.0
1656996943.8557923,-52.485755978152156,-11754.600928182248,36.00588682340458,10.731642922852188,0.0
1656996943.856598,-120.16298557631671,-12132.521558604669,25.57904574694112,8.147372053470463,0.0
1656996943.856598,103.89068086910993,-11716.726961330976,-15.08114657131955,8.356806450989097,0.0
1656996943.8701005,170.40106168109924,-11427.142767861951,-12.496875701937824,10.080900330562145,0.0
1656996943.8701005,-72.86447083670646,-11777.676110908855,42.614290045108646,8.798114645760506,0.0
1656996943.88583,-139.34493244905025,-12225.17384010693,22.863878379110247,10.353913027327508,0.0
1656996943.88583,88.47481325175613,-12591.005243922584,-15.399038067553192,8.439084250014275,0.0
1656996943.8865583,51.173051093705,-12902.508991031907,-23.260307774413377,7.9080184563063085,0.0
1656996943.8865583,-228.71732169017196,-12553.649253215175,27.699569021817297,8.22590995253995,0.0
1656996943.9164472,-305.0785989854485,-12880.834400838707,19.09031932381913,6.112866477575153,0.0
1656996943.9164472,-78.5191995697096,-12416.701596637722,-15.47383606666699,7.391912262421101,0.0
1656996943.9171772,-16.88190839998424,-12094.595233154017,-8.962670243810862,7.934197755996138,0.0
1656996943.9171772,-239.56677146162838,-12493.58272002684,40.598483968991786,9.288041539955884,0.0
1656996943.9179254,-305.1833161842078,-12832.888883406762,25.743601344991475,6.965563667472452,0.0
1656996943.9179254,-71.95193524751812,-12380.409607467707,-17.426063843537122,6.842146968934685,0.0
1656996943.9301176,-6.290511725470424,-12047.928761506919,-12.736229299101979,4.542108496185392,0.0
1656996943.9301176,-223.24584805499762,-12447.525852072518,36.80622541392222,9.714390134904534,0.0
1656996943.9621408,-291.106332750991,-12789.386367122177,21.655890693422407,3.3191612106747925,0.0
1656996943.9621408,-55.746948739513755,-12330.197710662615,-15.982462460640818,7.324594063218683,0.0
1656996943.962884,10.217406678944826,-12010.578380649444,-14.991388972382993,10.896198520902544,0.0
1656996943.962884,-215.68751024454832,-12399.28862244403,37.36347050732002,6.569134272169322,0.0
1656996943.9636333,-273.6653093076311,-957.3900793069042,28.004370868206024,7.646225459408015,0.0
1656996943.9643872,-50.43068095250055,-524.743492832873,-14.039584433659911,9.003809143323451,0.0
1656996943.9643872,20.806933403480798,-190.97238138737157,-16.717352801933885,8.783155045937747,0.0
1656996943.9750612,-202.3005383531563,-580.5801991713233,38.801462040282786,8.147372053470463,0.0
1656996943.9750612,-273.39603651082143,-944.0461162650026,16.635075002908707,6.838407068978995,0.0
1656996943.9907837,-34.640823339577764,-473.0992143447511,-16.784671001136303,10.178137729410082,0.0
1656996943.9907837,34.4800076414831,-146.7144053117372,-11.350596365518868,9.190804141107947,0.0
1656996943.9915607,-192.87225056486204,-557.0375289502554,37.44387835636735,9.665771435480565,0.0
1656996943.9915607,-255.1752439267002,-884.8397600664757,22.626394731923938,12.504355501849204,0.0
1656996944.0050526,-28.518607112113386,-438.80059185111895,-13.826410136185586,10.338953427504748,0.0
1656996944.0050526,26.536460135597736,-126.53764505079016,-14.727726025506854,8.712096946779639,0.0
1656996944.0207765,-194.34577114740387,-505.2997529632412,38.17315884772688,8.22217005258426,0.0
1656996944.0207765,-249.83092689001933,-851.8762818570249,22.431919934228063,9.519915337208658,0.0
1656996944.0215504,-20.79571370361373,-411.01313518034294,-15.524324716068804,7.608826459851116,0.0
1656996944.0215504,49.37976906495169,-71.04500950826332,-12.726879549212754,7.148818765301257,0.0
1656996944.0350597,-174.75991507945582,-476.1060939091258,41.14637931250036,9.265602140221745,0.0
1656996944.0350597,-246.59965332830325,-829.575258421246,24.94887260440737,9.011288943234831,0.0
1656996944.0507855,-5.349926886614412,-368.1277023884468,-16.668734102509916,7.03662176663056,0.0
1656996944.0507855,58.94269325165078,-46.97501339344308,-16.03669100999832,8.891612144652754,0.0
1656996944.0515585,-163.48411671305075,-440.7079408285208,33.75259710010141,8.62233934784308,0.0
1656996944.0515585,-232.3842935967259,-776.0049314559437,19.922447063960135,7.44427086180076,0.0
1656996944.0650585,-9.239422840531915,-351.324331887532,-16.51913810428232,8.151111953426152,0.0
1656996944.0650585,61.175413525197655,-15.89644476165995,-16.395721405744553,9.43389763822779,0.0
1656996944.0971792,-153.65565962949768,-408.9935892042704,35.831981475465,9.198283941019326,0.0
1656996944.0971792,-226.14988037059084,-774.2247390770353,21.7512581422925,9.654551735613495,0.0
1656996944.0979033,3.2817622111178935,-320.3467405545525,-17.031504398211837,9.504955737385899,0.0
1656996944.0979033,72.33901489293203,24.823585955891758,-12.547364351339638,6.22506347624585,0.0
1656996944.0986533,-155.33861460955814,-377.8589220731519,37.997383549809456,10.66058482369408,0.0
1656996944.0986533,-224.97181188454852,-739.4960280884989,24.784317006357014,10.178137729410082,0.0
1656996944.0994036,9.291781439911574,-279.36117694014683,-16.803370500914752,9.47877643769607,0.0
1656996944.0994036,73.49090407928452,26.992727930191904,-15.28497111890465,9.209503640886396,0.0
1656996944.1100984,-150.14389357110485,-352.91004946874455,35.970357773825526,9.306741039734334,0.0
1656996944.1100984,-208.40779498079792,-703.4845314151607,24.709519007243216,10.963516720104963,0.0
1656996944.1250896,11.760115410666913,-271.4438087339513,-18.721939178183675,8.790634845849127,0.0
1656996944.1250896,86.26640232792124,70.30824921699241,-14.948380122892559,11.47588301403448,0.0
1656996944.140804,-141.14569427771494,-328.9111114530824,36.015236573293805,11.932150808628649,0.0
1656996944.140804,-213.42300082137808,-694.18340022536,23.194859525188804,8.880392444785684,0.0
1656996944.1415648,19.288534021470696,-239.5424621119164,-16.43312040530145,9.658291635569185,0.0
1656996944.1415648,91.01981517160311,88.43554430222139,-16.362062306143343,8.768195446114987,0.0
1656996944.1550841,-139.65347419539467,-311.51683675916865,36.015236573293805,10.219276628922671,0.0
1656996944.1550841,-203.32153104105964,-655.1799835874699,24.245771412737668,7.807041157502681,0.0
1656996944.1707585,25.54164674738422,-226.74826436350122,-11.754505560733378,10.473589825909585,0.0
1656996944.1707585,94.52784133004025,108.94515565922484,-14.712766425684094,7.074020766187459,0.0
1656996944.1715605,-127.57733723847196,-275.8120118821971,39.616760230623186,8.540061548817903,0.0
1656996944.1715605,-205.66270841332152,-649.0428077601828,26.257837588898838,7.328333963174373,0.0
1656996944.1850832,24.494474759791046,-208.21706008305773,-16.646294702775776,5.772535581607372,0.0
1656996944.1850832,98.94840307766572,133.57239686744288,-15.449526716955006,11.659138111863285,0.0
1656996944.2007935,-127.94010753417388,-273.35115771135315,39.15675253607333,7.6275259596295655,0.0
1656996944.2007935,-194.11763725010678,-624.3370286528952,26.62060788460076,7.784601757768542,0.0
1656996944.2015595,28.896337007638067,-176.79442065535113,-13.145748344250023,10.331473627593368,0.0
1656996944.2015595,98.00220838887617,144.4592456384562,-17.476552492938936,9.957483632024378,0.0
1656996944.247845,-122.28537880117074,-249.3185605960898,37.7206309530884,7.919238156173378,0.0
1656996944.247845,-193.68754875520244,-610.192727020476,23.243478224612772,9.534874937031418,0.0
1656996944.2485857,34.618383939843625,-181.0279874051921,-16.07782990951091,7.765902257990092,0.0
1656996944.2485857,110.64681013906375,168.6937973513268,-14.308857230469584,8.940230844076723,0.0
1656996944.2493384,-114.84671778930351,-222.98592500807717,41.55402840767056,6.24002307606861,0.0
1656996944.2493384,-193.2200612607412,-600.9289948302321,27.170373178087175,10.484809525776654,0.0
1656996944.2500825,36.11808382207528,-157.66483238199726,-15.195213519968092,10.320253927726299,0.0
1656996944.2500825,110.51217374065891,180.48944181157276,-14.09194303303957,9.946263932157308,0.0
1656996944.2607863,-113.95288169989362,-223.00462450785562,40.24880332313478,8.506402449216694,0.0
1656996944.2607863,-185.4784683524631,-574.3420460452326,27.058176179416478,7.530288560781628,0.0
1656996944.2615583,38.40316269500181,-152.00636374903843,-15.520584816113114,5.076914189849049,0.0
1656996944.2615583,115.1496496857144,191.53336638072506,-13.512258539907634,7.242316264193505,0.0
1656996944.275108,-107.06398598151281,-189.42780270567164,33.88349359855056,8.491442849393934,0.0
1656996944.275108,-189.15479000890628,-568.7209764118306,26.882400881499052,7.3844324625097215,0.0
1656996944.2907844,45.98020000522956,-130.3373834057711,-16.739792201668024,10.626925724092871,0.0
1656996944.2907844,119.57395133329555,216.48223898513243,-15.071796821430326,10.26041552843526,0.0
1656996944.291558,-105.54558659950271,-189.86911090044305,41.18377831205726,9.000069243367761,0.0
1656996944.291558,-181.54035369912162,-545.6906724846922,25.73051169514656,9.108526342082769,0.0
1656996944.3051069,50.711173449177295,-112.63643691549078,-16.08530970942229,9.983662931714207,0.0
1656996944.3051069,115.407702782657,209.8925352632068,-17.33817619457841,7.556467860471457,0.0
1656996944.3207805,-95.94526341324672,-169.7708885385655,38.419992244802415,8.828033845406026,0.0
1656996944.3207805,-175.68741026846692,-537.3619152833708,24.705779107287526,6.25124277593568,0.0
1656996944.3215516,45.22100031422451,-124.02443228056654,-12.45386685244739,6.0156290787272155,0.0
1656996944.3215516,126.73959964839742,233.21455138688907,-17.962739487178624,12.033128107432276,0.0
1656996944.3515437,-95.75452851550654,-153.71175812883303,38.17689874768257,9.317960739601403,0.0
1656996944.3515437,-177.30678694928065,-532.7094797384925,26.14938049018383,8.584940348286182,0.0
1656996944.3522613,52.24827233096585,-89.9502037842758,-9.921954582445323,8.996329343412071,0.0
1656996944.3522613,129.12565582012758,244.09018045803532,-15.202693319879472,11.621739112306386,0.0
1656996944.353011,-98.99702177708969,-154.0558289247565,38.835121139883995,11.322547115851194,0.0
1656996944.353011,-172.57207360537723,-504.3236390748061,26.242877989076078,8.154851853381842,0.0
1656996944.3650863,49.847256559412926,-81.90567897958681,-13.68429393786937,10.402531726751477,0.0
1656996944.3650863,121.49252001056448,237.6126737347804,-17.555090392008424,11.48336281394586,0.0
1656996944.380765,-97.57585979392752,-141.59074237244204,31.85272792261094,10.133258929941803,0.0
1656996944.380765,-170.26081543276086,-505.53910656040534,23.69974601920694,9.598453236278147,0.0
1656996944.381559,56.59029617952183,-85.92607143195346,-16.814590200781822,9.216983440797776,0.0
1656996944.381559,132.18489398388192,272.7452939185314,-15.872135411947966,8.861692945007235,0.0
1656996944.3950808,-88.45050390204415,-128.38141572894529,34.10040779598057,8.053874554578215,0.0
1656996944.3950808,-170.7245630272664,-500.8492720159702,24.59732200857252,11.382385515142232,0.0
1656996944.4107585,57.102662473451346,-68.419599739369,-12.192073855549097,7.3432935629971325,0.0
1656996944.4107585,131.66504789004102,267.0269868862815,-17.233458995819092,10.806440921965986,0.0
1656996944.411557,-87.97927650762722,-112.68131571495906,36.74825696460903,10.589526724535972,0.0
1656996944.411557,-162.48930332483724,-482.00765603920445,26.377514387480915,8.62233934784308,0.0
1656996944.4250867,58.17601376073435,-76.3855866449885,-16.1563678085804,9.000069243367761,0.0
1656996944.4250867,132.0427777855657,279.72768713580444,-17.050203897990286,10.798961122054607,0.0
1656996944.4407597,-82.01039617834613,-102.25821453845128,41.0566217135638,8.902831844519824,0.0
1656996944.4407597,-170.1710578338243,-494.0688333963044,29.85188144631684,7.893058856483549,0.0
1656996944.4415581,58.13113496126607,-54.338876406196505,-18.729418978095055,10.208056929055601,0.0
1656996944.4415581,139.21964580053464,293.868248868268,-15.131635220721364,8.558761048596352,0.0
1656996944.4550824,-91.7677951627411,-108.7357212617062,35.34205458126962,10.626925724092871,0.0
1656996944.4550824,-168.97428984800354,-475.89291961165145,28.034290067851543,7.687364358920604,0.0
1656996944.4707615,63.598868696484715,-54.12570210872218,-12.337929953821003,7.100200065877289,0.0
1656996944.4707615,137.2337589240633,287.4505805443041,-16.06661020964384,8.083793754223734,0.0
1656996944.4714794,-84.0972603536211,-87.5417082128115,35.28969598188996,8.461523649748415,0.0
1656996944.4714794,-164.8753594965674,-470.6084409742616,27.03199687972665,9.332920339424163,0.0
1656996944.5312371,61.71769901877269,-56.10784908523783,-16.664994202554226,8.65599844744429,0.0
1656996944.5312371,132.0091186859645,304.92713303724304,-15.479445916600525,9.04120814288035,0.0
1656996944.531959,-84.33287405082956,-86.13924572942778,40.34230082202703,11.023355119396001,0.0
1656996944.531959,-163.82070770906284,-470.04371608095244,28.460638662800193,4.8899191920645535,0.0
1656996944.5478747,65.99614456808195,-38.33584449579939,-15.112935720942914,9.220723340753466,0.0
1656996944.5478747,135.99959193868563,305.2450245334767,-13.845109635964036,11.43474411452189,0.0
1656996944.548586,-81.15021918853745,-79.49344350816682,37.33168135769665,8.207210452761501,0.0
1656996944.548586,-161.44961113715544,-446.73665955709293,28.54291646182537,9.639592135790735,0.0
1656996944.5493314,68.4943977384828,-49.64156206184998,-16.03295111004263,7.971596755553037,0.0
1656996944.5493314,137.7124661183916,312.29099604999647,-10.83823007158935,8.988849543500692,0.0
1656996944.5500815,-87.24999601626769,-67.74641774734482,37.55981525499374,8.25582915218547,0.0
1656996944.5500815,-157.93784507876262,-457.0438238349743,28.082908767275512,5.585540583822876,0.0
1656996944.562112,65.89516726927832,-33.49641395313665,-16.354582506231964,8.521362049039453,0.0
1656996944.562112,140.16584048932418,325.1712114973925,-12.760538648813963,8.697137346956879,0.0
1656996944.562853,-77.91894562682137,-70.36060781637207,35.87686027493328,9.84528663335368,0.0
1656996944.562853,-162.23499012785032,-425.90541680390015,29.33951515238732,8.835513645317405,0.0
1656996944.575753,63.64748739590868,-24.187802963424474,-12.027518257498741,8.62607924779877,0.0
1656996944.575753,143.32979585183784,310.1218540756963,-19.963585963472724,8.012735655065626,0.0
1656996944.5765517,-70.62614071322605,-52.8578760237433,36.59492106642574,10.084640230517834,0.0
1656996944.5765517,-161.71140413405374,-436.5865710773505,28.314782564528286,7.620046159718186,0.0
1656996944.5908067,64.03643699130043,-29.92480949545279,-18.759338177740574,6.067987678106874,0.0
1656996944.5908067,145.85048842197284,335.766348071862,-14.940900322981179,9.557314336765558,0.0
1656996944.5915496,-73.74895717622712,-58.770657853689045,38.18811844754964,10.780261622276157,0.0
1656996944.5915496,-158.33427447406575,-441.24274652218446,30.97385143302381,9.920084632467479,0.0
1656996944.6378713,71.58355510188267,-20.466602507513016,-17.465332793071866,10.406271626707166,0.0
1656996944.6378713,145.15112713025883,329.4010383472778,-15.31863021850586,9.093566742260009,0.0
1656996944.6385856,-69.81084252288565,-56.01061168638989,36.467764467932284,11.004655619617552,0.0
1656996944.6385856,-153.34524793317541,-425.7333814059384,32.89242011029273,9.261862240266055,0.0
1656996944.6393368,66.13452086644247,-28.72430160967633,-14.11438243277371,10.26789532834664,0.0
1656996944.6393368,144.3507885397412,337.34458585316315,-13.242985743097961,11.05701421899721,0.0
1656996944.6400833,-64.32440928788856,-35.011073435191065,36.58370136655867,11.50580221368,0.0
1656996944.6400833,-155.54804900707677,-432.02763303136453,28.55039626173675,7.765902257990092,0.0
1656996944.650762,64.11123499041423,-35.62067712796852,-17.798183889128268,8.188510952983052,0.0
1656996944.650762,157.10758728859946,336.4021310643293,-15.748718713410199,11.84987300960347,0.0
1656996944.651558,-73.62554047768936,-55.41970749339089,34.814728687517345,9.654551735613495,0.0
1656996944.651558,-150.5328431664966,-414.64083813736215,29.84440164640546,8.338106951210648,0.0
1656996944.6651042,70.07637541973963,-15.829126562457532,-14.215359731577337,7.294674863573164,0.0
1656996944.6651042,150.1588531709276,328.15191176207736,-20.307656759396195,9.85650633322075,0.0
1656996944.6807585,-63.84944199351594,-30.05196609394625,36.23215077072382,4.61690649529919,0.0
1656996944.6807585,-156.41944569675252,-417.4345434042625,33.150473207235336,8.857953045051545,0.0
1656996944.681565,71.14598680706695,-34.618383939843625,-19.69057326670736,8.424124650191516,0.0
1656996944.681565,153.2816696339287,345.3330121585168,-13.774051536805928,10.043501331005245,0.0
1656996944.7105873,-56.82590987673029,-31.390850278083235,34.814728687517345,9.85650633322075,0.0
1656996944.7105873,-157.02904938952997,-425.53890660824254,27.529403573833406,8.738276246469468,0.0
1656996944.727147,72.89625998632982,-5.671558282803744,-14.376175429672003,8.831773745361716,0.0
1656996944.727147,153.34524793317541,349.79097290569916,-13.796490936540067,8.020215454977006,0.0
1656996944.7278812,-69.33587522851303,-34.27805304387584,34.2387840943411,8.794374745804816,0.0
1656996944.7278812,-158.06500167725608,-405.2948281480931,28.385840663686395,12.175244305748492,0.0
1656996944.728622,67.02835695585236,-10.084640230517834,-17.846802588552237,11.326287015806884,0.0
1656996944.728622,151.3518812567927,338.877944834996,-18.011358186602592,9.729349734727293,0.0
1656996944.7293868,-52.49510572804138,-22.531027283053845,36.75573676452041,7.915498256217688,0.0
1656996944.7293868,-159.48242376046255,-414.48750223917887,33.588041502051055,11.191650617402047,0.0
1656996944.7401092,62.2712042122148,-11.629218912217766,-17.828103088773787,10.567087324801832,0.0
1656996944.7401092,159.37770656170323,367.92200789088383,-15.011958422139287,9.923824532423168,0.0
1656996944.755129,-70.47654471499845,-30.39977678982541,39.253989934921265,8.390465550590307,0.0
1656996944.755129,-158.48013057233766,-417.6551975016482,28.662593260407448,7.242316264193505,0.0
1656996944.7869396,62.95186600415036,-10.608226224314421,-14.664147726260126,10.929857620503753,0.0
1656996944.7869396,161.2775757391937,346.1931891483255,-21.055636750534177,9.976183131802827,0.0
1656996944.7876797,-60.43117343401536,-15.802947262767702,37.56355515494943,8.21843015262857,0.0
1656996944.7876797,-158.84290086803958,-409.8724656938575,32.66802611295134,7.04036166658625,0.0
1656996944.7884288,60.13198143756017,-18.570473229978234,-15.468226216733456,10.23049632878974,0.0
1656996944.7884288,163.45045761344954,363.32567084534094,-14.256498631089926,9.725609834771603,0.0
1656996944.800753,-66.84510185802355,-8.62981914775446,37.7206309530884,12.455736802425236,0.0
1656996944.800753,-158.15475927619264,-417.08673270838335,34.369680592790246,9.46007693791762,0.0
1656996944.8016105,75.22621765872464,-1.4940900322981179,-13.904948035255075,10.514728725422174,0.0
1656996944.8016105,159.38144646165892,361.79979166341946,-22.256144636310637,9.493736037518829,0.0
1656996944.8315349,-62.14030771376565,-18.7312889280729,34.2013850947842,7.612566359806806,0.0
1656996944.8315349,-166.24042298039421,-410.53442798601463,31.37028082832694,9.183324341196567,0.0
1656996944.8322873,73.06081558438018,-13.300954192411155,-14.155521332286298,8.981369743589312,0.0
1656996944.8322873,169.79706783825532,357.005239920225,-19.911227364093065,9.927564432378858,0.0
1656996944.8330338,-61.994451615493745,0.682531741913408,33.01209690887481,5.0918737896718085,0.0
1656996944.8330338,-165.0586145943962,-415.08588623208925,32.97095800936222,6.359699874650687,0.0
1656996944.8614602,71.3853404042311,-11.771335110533983,-17.087602897547185,6.786048469599336,0.0
1656996944.8614602,166.8425468732603,375.55514370044693,-20.655467455275357,9.662031535524875,0.0
1656996944.862258,-67.85113494610414,-16.69678335217759,33.43844550382346,10.24919582856819,0.0
1656996944.862258,-161.539368736092,-402.9573906757869,38.3526740456,9.710650234948844,0.0
1656996944.86301,71.83786829886958,0.5291958437301219,-16.795890701003373,8.450303949881345,0.0
1656996944.86301,167.86727946111932,366.8673561033793,-18.665840678848326,10.095859930384904,0.0
1656996944.875157,-58.03015766246244,5.1330126891843975,38.33397454582155,6.808487869333476,0.0
1656996944.875157,-158.58858767105266,-402.4001455823891,34.17520579509437,8.768195446114987,0.0
1656996944.8908348,65.94378596870229,-29.689195798244327,-19.806510165333748,6.561654472257942,0.0
1656996944.8908348,171.58847991703078,375.6860401988961,-26.17929968982935,8.712096946779639,0.0
1656996944.8916063,-54.5632704035379,1.452951132785529,41.36703340988606,12.029388207476586,0.0
1656996944.8916063,-164.56868770020083,-412.5838931617327,38.77528274059296,7.204917264636606,0.0
1656996944.9051743,68.17650624224916,-5.563101184088737,-14.712766425684094,8.745756046380848,0.0
1656996944.9051743,172.44117710692808,376.9314268841408,-21.33238934725523,8.906571744475514,0.0
1656996944.9208405,-62.26372441230342,0.3347210460342467,32.97095800936222,6.771088869776577,0.0
1656996944.9208405,-161.95449763117358,-389.6882256329991,37.234443958848715,10.563347424846143,0.0
1656996944.9215996,71.44143890356645,8.876652544829994,-9.518045387230814,10.159438229631633,0.0
1656996944.9215996,161.75254303356633,357.3418309162371,-26.90858018118888,8.951450543943793,0.0
1656996944.9351597,-61.82989601744339,13.199976893607527,40.98182371445,7.197437464725226,0.0
1656996944.9351597,-167.20157726900652,-407.9987758160569,30.18847244232893,7.937937655951828,0.0
1656996944.9672177,70.11751431925222,-12.885825297329575,-17.016544798389077,9.231943040620536,0.0
1656996944.9672177,176.27831446146592,385.14798708679155,-19.073489774018526,9.86772603308782,0.0
1656996944.9679594,-54.768964901100844,4.052181601990014,33.91715269815177,9.534874937031418,0.0
1656996944.9679594,-160.74277004553005,-401.96631718752906,34.063008796423674,8.087533654179424,0.0
1656996944.9687097,72.8495112368837,-2.9227318153716624,-15.821646762546152,9.312350889667869,0.0
1656996944.9694648,165.50927253905684,371.9835392427631,-21.52125429501757,8.362416300922632,0.0
1656996944.9694648,-57.62437851727009,15.4700961667113,33.14112345734611,11.578730262815952,0.0
1656996944.980136,-159.14396281447262,-399.19505132036284,35.762793326284736,10.168787979520857,0.0
1656996944.980136,62.42641006037593,-15.642131564673036,-19.011781424749643,11.930280858650804,0.0
1656996944.99586,177.63028829544783,388.1735661509447,-21.19214309891686,11.971419758163393,0.0
1656996944.99586,-46.37475945055485,18.495675230864435,40.58352436916903,10.920507870614529,0.0
1656996944.9966097,-161.53749878611416,-409.41245799930766,39.95896107656881,10.419361276552081,0.0
1656996944.9966097,62.546086858958006,-4.183078100439161,-15.013828372117132,11.889141959138215,0.0
1656996945.0101345,177.17028060089797,382.63103441661224,-23.13315117591992,7.356383212842047,0.0
1656996945.0101345,-60.556460082530975,2.3093882226385176,36.985740611795336,9.338530189357698,0.0
1656996945.025859,-163.38500936422497,-397.81876813666895,40.284332372713834,5.475213535130024,0.0
1656996945.025859,77.03071938734502,1.8755598277784884,-16.550927253905684,8.979499793611467,0.0
1656996945.0266087,168.12346260808408,373.50941842468455,-22.441269684117287,9.892035382799804,0.0
1656996945.0266087,-55.48141584265977,20.440423207823187,31.342231578659266,8.0407849047333,0.0
1656996945.040134,-167.60361651424319,-399.6251398152672,34.82781833736226,10.02667178120464,0.0
1656996945.040134,65.75118112098426,-13.196236993651837,-16.079699859488755,11.444093864411116,0.0
1656996945.0721495,170.57683697901666,393.25609019072726,-19.696183116640896,10.101469780318439,0.0
1656996945.0721495,-56.38647163193673,14.389265079516917,32.176229268778116,10.389442076906562,0.0
1656996945.0728765,-163.65802206099033,-399.976690411102,38.17128889774904,8.609249697998166,0.0
1656996945.0728765,69.7715735733509,2.017676026094705,-10.858799521345645,9.424547888338566,0.0
1656996945.0736287,174.1933202361688,377.4512729779817,-22.70306268101558,9.963093481957912,0.0
1656996945.0736287,-61.45029617194086,23.679176569450647,32.3669641665183,9.776098484173417,0.0
1656996945.0743792,-161.3692032881081,-386.14280047500506,36.73516731476411,10.221146578900516,0.0
1656996945.0743792,67.32567900232971,-8.117452853824943,-14.108772582840174,9.304871089756489,0.0
1656996945.0851014,163.4859866630286,379.9457862484269,-23.050873376894742,13.24672564305365,0.0
1656996945.0851014,-48.39804532658309,33.23836085619405,34.74928043829277,12.932574046775699,0.0
1656996945.1000993,-166.02163883298635,-406.60005323262885,33.350557854864746,7.012312416918576,0.0
1656996945.1000993,70.13060396909714,-8.483963049482554,-16.562146953772753,7.330203913152218,0.0
1656996945.115774,175.95855301525444,387.7920963554643,-17.725255839992315,10.247325878590345,0.0
1656996945.115774,-56.64826462883502,15.638391664717346,34.04617924662307,8.41851480025798,0.0
1656996945.1165493,-163.57574426196516,-396.7304572495632,34.3678106428124,9.076737192459404,0.0
1656996945.1165493,67.28080020286143,-8.450303949881345,-15.974982660729438,6.9412543177604675,0.0
1656996945.1300995,165.4868331393227,372.8998147319071,-21.1023854999803,8.968280093744397,0.0
1656996945.1300995,-54.43798375502229,24.853505155537277,32.628757163416594,9.592843386344612,0.0
1656996945.1458364,-159.75356650725007,-392.52680969936773,33.98260094737634,8.669088097289205,0.0
1656996945.1458364,66.07655241712928,-19.47552901925519,-15.89644476165995,6.802878019399941,0.0
1656996945.14656,175.11333562526852,389.5274099349044,-23.89235086692497,8.179161203093827,0.0
1656996945.14656,-52.074366983026266,25.21253555128351,31.308572479058057,10.957906870171428,0.0
1656996945.1601112,-167.4876796156168,-395.29807556653395,32.78957286151126,11.747025760821998,0.0
1656996945.1601112,66.514120711945,-3.341600610408932,-12.25752210477367,10.669934573583305,0.0
1656996945.1758084,175.40504782181233,376.32556309131905,-22.71802228083834,9.768618684262037,0.0
1656996945.1758084,-56.132158434949815,23.716575569007546,37.13907650997862,8.377375900745392,0.0
1656996945.1765597,-161.91522868163884,-390.4997839233838,37.53176600532606,10.355782977305353,0.0
1656996945.1765597,65.9942746181041,-18.70884952833876,-15.425217367243022,7.0235321167856455,0.0
1656996945.1901183,176.3774218102917,391.40483971266076,-22.418830284383148,8.942100794054568,0.0
1656996945.1901183,-49.14602531772107,29.59195839939639,37.57664480479434,9.64520198572427,0.0
1656996945.2058134,-164.34616365283728,-403.6567519675009,39.17732198582962,9.918214682489634,0.0
1656996945.2058134,71.50688715279102,-12.799807598348707,-14.161131182219833,9.921954582445323,0.0
1656996945.2065685,173.57249684352428,393.3944664890878,-23.387464372906834,7.513459010981023,0.0
1656996945.2065685,-48.64487872365862,21.326779497321695,28.82527890847996,8.05948440451175,0.0
1656996945.2201157,-164.1479489551857,-388.5400763466023,38.04413229925558,7.281585213728249,0.0
1656996945.2201157,67.34811840206385,3.4014390096999705,-13.08777989493683,8.46713349968195,0.0
1656996945.235777,174.43267383333296,377.4998916774057,-22.68436318123713,9.835936883464456,0.0
1656996945.235777,-50.866379297338426,31.716221574228257,35.09335123421624,6.885155818425119,0.0
1656996945.2365456,-163.77395895961672,-390.54840262280777,38.272266196552664,8.612989597953856,0.0
1656996945.2365456,62.79666015598923,-24.460815660189837,-18.34607923263684,4.82821084279567,0.0
1656996945.2501009,173.17232754826546,389.0636623403989,-24.849765255581588,9.458206987939775,0.0
1656996945.2501009,-51.94347048457712,33.29819925548509,34.8128587375395,10.669934573583305,0.0
1656996945.2657876,-161.28318558912724,-399.0304957223125,35.35514423111454,11.810604060068727,0.0
1656996945.2657876,69.68555587437004,-4.740323193836957,-15.720669463742524,10.05285108089447,0.0
1656996945.266558,171.32481697015464,381.8755746255629,-17.684116940479726,7.326464013196528,0.0
1656996945.266558,-58.35365900862962,30.02204689430073,32.628757163416594,8.369896100834012,0.0
1656996945.2801068,-161.21212748996913,-384.9048935896717,43.040638640057296,6.761739119887352,0.0
1656996945.2801068,67.08632540516555,-14.609919176902622,-16.25921505736187,11.100023068487644,0.0
1656996945.2957842,177.1590609010309,387.47420485923067,-18.016968036536127,7.857529806904495,0.0
1656996945.2957842,-47.97543663159013,45.53889181045815,34.02747974684462,8.766325496137142,0.0
1656996945.2965565,-164.1516888551414,-395.2419770671986,37.10541741037741,9.360969589091837,0.0
1656996945.2965565,69.28912647906691,-15.567333565559238,-17.56818004185334,7.722893408499658,0.0
1656996945.3101015,176.88604820426553,395.41401246516034,-17.201669846195728,10.161308179609478,0.0
1656996945.3101015,-50.65694489981979,27.467695224564523,34.46130814170465,9.076737192459404,0.0
1656996945.3257763,-162.47621367499232,-385.3574214843102,36.47711421782151,8.317537501454353,0.0
1656996945.3257763,70.04458627011627,-8.28574835183099,-15.144724870566279,7.348903412930667,0.0
1656996945.3265488,172.1962136598304,380.44319294253364,-19.16511732293293,7.034751816652715,0.0
1656996945.3265488,-51.91729118488729,43.22015383793041,34.00504034711048,8.253959202207625,0.0
1656996945.3400998,-164.40600205212831,-379.0556900589727,40.628403168637305,10.374482477083802,0.0
1656996945.3400998,61.5849325703457,-26.435482836794108,-21.274420897942036,7.139469015412033,0.0
1656996945.3557818,177.0805230019614,394.10878738062456,-22.830219279509038,12.240692554973066,0.0
1656996945.3557818,-42.096313901245594,40.04497877554968,36.95956131210551,10.172527879476547,0.0
1656996945.3565564,-168.09728330839425,-396.99973004637286,40.89393606549129,9.125355891883373,0.0
1656996945.3565564,70.61679096333683,-9.411458238493651,-17.321346644777805,6.638322421349585,0.0
1656996945.3701165,175.7154595181346,384.6468404927291,-21.19214309891686,8.268918802030385,0.0
1656996945.3701165,-47.736083034425974,32.89802996022627,27.415336625184864,7.419961512088776,0.0
1656996945.385779,-160.57260459754616,-380.03180394740775,35.23546743253246,10.02667178120464,0.0
1656996945.385779,66.80583290848881,-14.27332818089053,-13.704863387625664,10.991565969772637,0.0
1656996945.3865492,170.91342797502875,384.10081509919837,-24.049426665063947,8.47461329959333,0.0
1656996945.3865492,-46.535575148649514,42.300138448830694,32.479161165189,7.565817610360682,0.0
1656996945.4001038,-164.64535564929247,-399.2474099197425,37.31859170785174,9.076737192459404,0.0
1656996945.4001038,64.64417073410004,-19.774721015710384,-17.766394739504904,7.24792611412704,0.0
1656996945.4157743,174.91512092761695,396.74167694943026,-22.145817587617785,6.989873017184436,0.0
1656996945.4157743,-43.20332428812981,34.7380607384257,36.84362441347912,7.846310107037425,0.0
1656996945.4165485,-162.6295495731756,-389.99115752941,37.90575600089505,5.527572134509683,0.0
1656996945.4165485,65.0705193290487,-10.974736419972032,-16.150757958646864,10.628795674070716,0.0
1656996945.4300992,174.47755263280123,382.1672868221067,-20.67229700507596,11.795644460245967,0.0
1656996945.4300992,-49.11984601803124,43.32487103668973,31.783539773430675,10.303424377925694,0.0
1656996945.4455495,-159.18136181402951,-381.39686743123457,42.57315114559606,9.514305487275124,0.0
1656996945.4455495,62.08607916440815,-33.010226958896965,-17.429803743492812,7.674274709075689,0.0
1656996945.4607728,176.3400228107348,391.6180140101351,-24.472035360056907,9.899515182711184,0.0
1656996945.4607728,-44.20187757629901,50.45686025219038,36.222801020834595,9.596583286300302,0.0
1656996945.4615483,-171.6763675659895,-397.5681948396377,35.90490952460095,10.45302037615329,0.0
1656996945.4615483,64.70026923343539,-9.516175437252969,-20.066433212254196,7.045971516519785,0.0
1656996945.4757872,180.70074615906924,395.21953766746446,-17.003455148544163,6.645802221260965,0.0
1656996945.4757872,-44.27667557541281,43.70260093221441,35.67303572734818,8.141762203536928,0.0
1656996945.476545,-166.18245453108102,-383.236898209434,37.445748306345195,8.545671398751438,0.0
1656996945.476545,69.08343198150396,-24.33739896165207,-11.685317411553115,8.912181594409049,0.0
1656996945.4901078,171.73620596528053,378.7228389629163,-25.55660634720698,10.06781068071723,0.0
1656996945.4901078,-58.162924110889435,48.36999607691541,28.129657516721636,10.509118875488639,0.0
1656996945.5058312,-164.36486315261573,-390.0921348282136,40.57978446921334,7.1432089153677225,0.0
1656996945.5058312,66.19248931575567,-25.631404346320778,-18.67519042873755,11.578730262815952,0.0
1656996945.5065815,180.9737588558346,395.96751765860245,-18.34233933268115,10.243585978634655,0.0
1656996945.5065815,-48.31202762760222,38.78463249048218,37.95063480036333,11.421654464676976,0.0
1656996945.5201056,-169.1145360963419,-389.77050343202427,33.365517454687506,6.395228924229741,0.0
1656996945.5201056,69.07969208154827,-12.68013079976663,-16.554667153861374,7.360123112797737,0.0
1656996945.535848,178.47550568543375,389.93131913011894,-26.128811040427536,9.742439384572208,0.0
1656996945.535848,-44.3926124740392,50.696213849354535,34.77919963793829,6.2979915253818035,0.0
1656996945.5365825,-163.2952517652884,-380.14774084603414,40.47506727045402,10.400661776773632,0.0
1656996945.5365825,60.63499798160046,-27.845425120089203,-19.019261224661022,6.02497882861644,0.0
1656996945.5501719,176.12684851326048,393.77219638461247,-20.73961520427838,10.161308179609478,0.0
1656996945.5501719,-41.79338200483471,50.95800684625283,34.74928043829277,9.435767588205636,0.0
1656996945.5659096,-169.51844529155642,-393.4991836878471,35.800192325841635,7.513459010981023,0.0
1656996945.5659096,64.2178221391514,-14.998868772294372,-14.6547979763709,9.783578284084797,0.0
1656996945.566635,178.66250068321824,377.66818717541173,-23.832512467633933,9.196413991041481,0.0
1656996945.566635,-46.120446253567934,34.73058093851432,26.076452441047877,7.823870707303286,0.0
1656996945.5801568,-162.09474387951195,-383.1994992098771,41.26418616110459,10.501639075577259,0.0
1656996945.5801568,60.1039321878925,-24.965702154207975,-16.34523275634274,7.704193908721209,0.0
1656996945.595883,174.22323943581432,383.8203226025216,-24.161623663734645,9.862116183154285,0.0
1656996945.595883,-42.54510189592838,58.789357353467494,32.09395146975294,9.824717183597386,0.0
1656996945.596632,-164.8211309472099,-383.36405480792746,42.10192375117913,9.125355891883373,0.0
1656996945.596632,59.337252696976066,-33.1822623568587,-16.491088854614645,8.167941503226757,0.0
1656996945.6265354,177.4881720971316,394.983923970256,-19.57276641810313,8.01460560504347,0.0
1656996945.6265354,-46.9843631433323,45.61742970952764,30.919622883666307,10.572697174735367,0.0
1656996945.6272693,-169.8961751870811,-386.3784141722135,34.655782939400524,12.824116948060691,0.0
1656996945.6272693,65.15653702802956,-15.52993456600234,-14.628618676681072,7.782731807790697,0.0
1656996945.6280363,175.95855301525444,380.2075792453252,-22.489888383541256,9.106656392104924,0.0
1656996945.6280363,-39.06699493713677,51.04776444518939,34.72684103855863,8.942100794054568,0.0
1656996945.6401873,-157.95093472860754,-379.17910675751045,39.63358978042379,6.398968824185431,0.0
1656996945.6401873,59.51676789484918,-36.11808382207528,-13.45429009059444,12.423947652801871,0.0
1656996945.6722033,176.7140128063038,385.82116907881573,-27.830465520266443,6.099776827730238,0.0
1656996945.6722033,-34.388380092568696,68.75993063533679,30.508233888540417,11.305717566050589,0.0
1656996945.6729324,-163.4822467630729,-392.17899900348857,37.53550590528175,9.446987288072705,0.0
1656996945.6729324,63.63065784610808,-19.767241215799004,-15.212043069768697,9.566664086654782,0.0
1656996945.6736805,178.84575578104705,391.03832951700315,-16.816460150759667,10.266025378368795,0.0
1656996945.6736805,-38.378853345289826,51.500292339827865,30.83734508464113,9.850896483287215,0.0
1656996945.6744323,-166.95287392195314,-381.1275946344249,40.647102668415755,13.033551345579326,0.0
1656996945.6744323,66.26354741491377,-20.37310500862077,-11.000915719661862,8.713966896757483,0.0
1656996945.6851053,173.87916863989085,382.24956462113187,-22.31411308562383,11.043924569152296,0.0
1656996945.6851053,-37.95624465029687,65.61467477260157,33.23836085619405,11.515151963569224,0.0
1656996945.7001407,-168.38525560498238,-384.17935299826786,45.61742970952764,11.956460158340633,0.0
1656996945.7001407,57.11949202325195,-32.643716763239354,-13.45802999055013,10.662454773671925,0.0
1656996945.7158048,171.9344206629321,395.7356438613497,-21.92890339018777,10.972866469994187,0.0
1656996945.7158048,-38.4985301438719,58.22837236011401,32.74469406204298,10.05285108089447,0.0
1656996945.7165544,-166.41806822828948,-386.06800247589126,37.32981140771881,7.393782212398946,0.0
1656996945.7165544,65.18645622767508,-14.729595975484699,-14.995128872338682,7.333943813107908,0.0
1656996945.7301223,174.61218903120607,388.14364695129916,-19.49422851903364,7.63687570951879,0.0
1656996945.7301223,-42.62737969495356,53.568457015324384,30.564332387875766,9.67512118536979,0.0
1656996945.7458372,-169.64934179000556,-384.1643933984451,39.94774137670174,9.906994982622564,0.0
1656996945.7458372,60.41434388421476,-40.83035776624456,-20.36562520870939,9.27121199015528,0.0
1656996945.746575,178.7148592825979,394.2060247794725,-20.732135404367,10.636275473982096,0.0
1656996945.746575,-34.6464331895113,62.27494411217049,32.31086566718295,11.002785669639707,0.0
1656996945.760096,-166.62376272585243,-395.6870251619257,39.36057708365843,8.01834550499916,0.0
1656996945.760096,55.11490564700216,-32.86811076058075,-14.950250072870404,8.392335500568151,0.0
1656996945.7758393,182.0097111435607,397.81876813666895,-19.722362416330725,9.619022686034441,0.0
1656996945.7758393,-36.98387066181749,48.09698338015005,29.666756398510188,10.426841076463461,0.0
1656996945.7765813,-167.8915888108313,-381.80451652640477,39.34187758387998,8.08192380424589,0.0
1656996945.7765813,57.46356281917542,-25.455629048403352,-16.397591355722398,7.9472874058410525,0.0
1656996945.7901103,174.65332793071866,388.07258885214105,-24.41967676067725,10.206186979077756,0.0
1656996945.7901103,-39.3512273337692,65.11726807849482,33.22340125637129,10.269765278324485,0.0
1656996945.805832,-165.92066153418273,-376.10116909397766,42.15428235055879,7.25914581399411,0.0
1656996945.805832,56.37151203211397,-38.653735992033035,-11.924671008717269,7.790211607702076,0.0
1656996945.8065815,177.9406999917701,397.2727427431382,-25.2162754512392,9.323570589534938,0.0
1656996945.8065815,-34.95684488583356,63.217398901004344,33.31315885530785,9.170234691351652,0.0
1656996945.8201053,-169.17063459567726,-388.7943895435892,41.96728735277429,5.179761438630521,0.0
1656996945.8201053,53.51422846596688,-33.043886058498174,-16.592066153418273,9.046817992813885,0.0
1656996945.8522108,181.02611745521426,386.3522348725237,-23.16307037556544,10.236106178723276,0.0
1656996945.8522108,-34.17894569505006,58.13861476117745,28.70934200985357,8.968280093744397,0.0
1656996945.8529563,-163.39996896404773,-377.48119217762724,38.84821078972891,11.204740267246962,0.0
1656996945.8529563,58.31626000907272,-38.653735992033035,-13.401931491214782,10.591396674513817,0.0
1656996945.8537052,184.02177731972188,392.2724965023808,-25.268634050618857,8.82990379538387,0.0
1656996945.8537052,-33.962031497620046,72.55966899031773,30.32497879071161,9.043078092858195,0.0
1656996945.8544557,-166.99401282146573,-390.6456400216557,42.285178849007934,4.708534044213593,0.0
1656996945.8544557,58.65285100508481,-37.99177369987592,-8.943970744032413,9.25625239033252,0.0
1656996945.8651314,172.7459789533168,399.0192760224454,-24.423416660632938,9.996752581559122,0.0
1656996945.8651314,-36.048895672895014,56.22004608390853,33.354297754820436,8.130542503669858,0.0
1656996945.8801303,-167.57743721455336,-381.1163749345578,42.77510574320331,10.011712181381881,0.0
1656996945.8801303,58.06942661199719,-31.824678672943264,-14.647318176459521,7.573297410272062,0.0
1656996945.8958004,173.53883774392307,386.40833337185904,-30.238961091730744,12.270611754618585,0.0
1656996945.8958004,-33.32998840510845,71.4601384033449,30.82238548481837,12.248172354884446,0.0
1656996945.8965473,-171.10790277272463,-383.62210790487006,41.29410536075011,6.915075018070638,0.0
1656996945.8965473,53.45439006667584,-55.21401299582794,-14.67723737610504,9.929434382356703,0.0
1656996945.910159,181.21311245299876,393.9143125829287,-20.74335510423407,11.137422068044543,0.0
1656996945.910159,-35.663685977458954,67.6828394480981,30.81864558486268,7.891188906505704,0.0
1656996945.9258044,-170.27764498256147,-388.5325965466909,39.10252398671582,10.785871472209692,0.0
1656996945.9258044,57.29152742121369,-31.723701374139637,-16.550927253905684,7.348903412930667,0.0
1656996945.926551,176.29888391122222,398.66398552665487,-20.960269301664084,10.88684877101332,0.0
1656996945.926551,-35.39815308060497,58.359268858563155,32.73347436217591,7.442400911822915,0.0
1656996945.940123,-165.38211594056338,-379.1716269575991,40.98743356438354,7.973466705530882,0.0
1656996945.940123,55.64597144071013,-45.879222706425935,-16.73418235173449,11.144901867955923,0.0
1656996945.9558256,179.26462457608432,387.73599785612896,-23.043393576983362,7.992166205309331,0.0
1656996945.9558256,-34.799769087694585,73.33756818110123,29.737814497668296,7.6667949091643095,0.0
1656996945.9565582,-169.1930739954114,-384.2354514976032,39.450334682594985,8.998199293389916,0.0
1656996945.9565582,56.81282022688538,-32.80827236128971,-11.49084261385724,11.780684860423207,0.0
1656996945.970802,173.92965728929266,391.9471252062358,-23.52958057122305,11.212220067158341,0.0
1656996945.9715486,-34.68196223909035,57.29713727114722,27.755667521152645,7.715413608588278,0.0
1656996945.9715486,-169.6512117399834,-382.55623641749844,42.32257784856483,8.743886096403003,0.0
1656996945.9851232,58.13487486122176,-38.193728297483176,-14.752035375218838,9.536744887009263,0.0
1656996945.9851232,172.07840681122616,386.9132198658772,-25.99791454197839,9.622762585990131,0.0
1656996946.0171793,-29.894890295807272,71.32550200494006,29.274066903162748,5.714567132294178,0.0
1656996946.0171793,-166.33392047928646,-381.0453168353997,43.496906434651464,11.25335896667093,0.0
1656996946.0179267,48.291458177845925,-56.380861782003194,-12.960623296443373,10.737252772785723,0.0
1656996946.0179267,178.78404743177816,394.4678177763708,-21.240761798340827,8.799984595738351,0.0
1656996946.0186763,-30.639130386989564,74.8335281633772,33.791866049636155,8.42973450012505,0.0
1656996946.0186763,-174.4382836832665,-392.8334814957343,36.29011922003701,7.0646710162982345,0.0
1656996946.019426,55.68524039024487,-47.39014228852466,-15.971242760773748,8.721446696668863,0.0
1656996946.019426,185.38871075352654,385.77255037939176,-23.394944172818214,7.382562512531877,0.0
1656996946.030102,-34.251873744186014,62.12534811394289,27.56493262341246,7.681754508987069,0.0
1656996946.030102,-164.40413210215047,-376.4601994897239,42.9284416413866,6.720600220374763,0.0
1656996946.0451007,54.293997606728226,-47.7080337847583,-14.456583278719336,9.67512118536979,0.0
1656996946.0451007,177.42272384790704,384.7889566910453,-25.732381645124406,8.0781839042902,0.0
1656996946.0608828,-26.29710653843358,77.58609453076497,27.99128121836111,8.814944195561111,0.0
1656996946.0608828,-172.44491700688377,-385.6154745812528,40.38156977156177,7.7079338086768985,0.0
1656996946.061622,52.22209303127602,-44.9292881176807,-14.097552882973105,9.102916492149234,0.0
1656996946.061622,188.48908781679347,396.0984141570516,-24.049426665063947,7.7453328082337976,0.0
1656996946.075102,-31.843378172721714,66.98347815638408,32.12013076944277,6.44384762365371,0.0
1656996946.075102,-172.08962651109323,-388.3568212487735,33.417876054067165,6.866456318646669,0.0
1656996946.0908337,59.05863015027717,-38.97910728817806,-14.048934183549136,9.151535191573203,0.0
1656996946.0908337,175.85196586651728,390.8064557197504,-17.751435139682144,8.291358201764524,0.0
1656996946.0915804,-30.100584793370217,78.77538271667436,33.70584835065529,10.823270471766591,0.0
1656996946.0915804,-172.41499780723825,-375.43920680182055,43.470727134961635,8.500792599283159,0.0
1656996946.1051054,51.567610539030284,-63.557729796972126,-16.147018058691174,9.23755289055407,0.0
1656996946.1051054,176.49896855885163,394.48651727614924,-25.418230048846453,10.823270471766591,0.0
1656996946.1208265,-28.462508612778038,73.9808309734799,33.90780294826254,8.366156200878322,0.0
1656996946.1208265,-168.40956495469436,-391.9134661066346,38.69487489154562,9.63772218581289,0.0
1656996946.121573,57.125101873185486,-42.778845643159,-17.03711424814537,12.016298557631671,0.0
1656996946.121573,171.34538641991094,393.67495898576453,-16.25921505736187,7.289065013639629,0.0
1656996946.1350992,-31.918176171835512,64.5301037854515,28.226894915569574,6.948734117671847,0.0
1656996946.1350992,-164.26201590383425,-379.4296800545417,33.93024234799668,5.568711034022272,0.0
1656996946.1508656,51.8219237360172,-50.05295105697587,-14.449103478807956,10.527818375267088,0.0
1656996946.1508656,167.83362036151811,382.2794838207774,-21.689549793023616,7.965986905619502,0.0
1656996946.151578,-30.504493988584727,78.21065782336518,34.2930126436986,6.099776827730238,0.0
1656996946.151578,-158.5399689716287,-378.07583627058193,37.08671791059896,3.541685258038342,0.0
1656996946.1814768,51.42549434071407,-47.72673328453675,-14.209749881643802,9.27869179006666,0.0
1656996946.1814768,168.23378965677693,383.0835623112507,-15.795467462856323,9.155275091528893,0.0
1656996946.182223,-28.137137316633016,70.00157742062584,30.0332665941678,12.315490554086864,0.0
1656996946.182223,-165.34658689098433,-377.3839547787793,32.72599456226453,6.152135427109897,0.0
1656996946.1829722,58.93147355178371,-36.80248551396653,-13.90307808527723,10.684894173406065,0.0
1656996946.1829722,169.9504037364386,381.090195634868,-13.820800286252052,9.727479784749448,0.0
1656996946.19513,-31.375890678260475,74.99808376142755,35.25416693231091,11.182300867512822,0.0
1656996946.19513,-156.14643299998716,-367.91452809097245,37.445748306345195,9.776098484173417,0.0
1656996946.2108295,49.21521346690133,-58.52382445661351,-21.09864560002461,11.062624068930745,0.0
1656996946.2108295,168.70875695114955,382.84420871408656,-17.321346644777805,8.235259702429175,0.0
1656996946.2115588,-31.97801457112655,80.58175439527258,33.30941895535216,7.823870707303286,0.0
1656996946.2115588,-166.12448608176783,-385.3536815843545,34.599684440065175,10.999045769684017,0.0
1656996946.2251315,50.83459014771506,-42.11688335100189,-12.369719103444368,9.215113490819931,0.0
1656996946.2251315,171.5436011175625,392.33981470158324,-17.590619441587478,9.338530189357698,0.0
1656996946.240821,-28.185756016056985,75.7572834524326,28.241854515392333,11.062624068930745,0.0
1656996946.240821,-160.30520175071433,-369.65358157036826,39.57749128108844,11.043924569152296,0.0
1656996946.2415485,51.85558283561841,-44.244886425789446,-11.378645615186542,7.618176209740341,0.0
1656996946.2415485,168.63021905208007,387.7584372558631,-21.670850293245167,9.525525187142193,0.0
1656996946.2551334,-30.497014188673347,77.15226613590494,29.752774097491056,8.893482094630599,0.0
1656996946.2551334,-162.93061151960865,-379.7101725512184,35.64685642765835,9.443247388117015,0.0
1656996946.287202,48.82626387150958,-59.6383146434091,-16.554667153861374,11.66100806184113,0.0
1656996946.287202,176.53636755840853,391.3973599127494,-17.05581374792382,12.816637148149312,0.0
1656996946.2879295,-25.739861445035785,78.18447852367535,33.380477054510266,8.979499793611467,0.0
1656996946.2879295,-163.00166961876675,-377.98981857160106,34.28553284378722,8.512012299150229,0.0
1656996946.2886755,53.82651011226699,-43.38470943598077,-8.27826855191961,8.160461703315377,0.0
1656996946.2886755,165.26056919200346,379.8223695498891,-15.245702169369906,11.993859157897532,0.0
1656996946.2894201,-28.544786411803216,76.28460934618488,28.43258941313252,10.84196997154504,0.0
1656996946.2894201,-161.4645707369782,-370.54367775982246,36.86232391325757,8.328757201321423,0.0
1656996946.3000968,43.94195452937856,-58.12365516135469,-15.047487471718341,10.228626378811896,0.0
1656996946.3000968,171.07237372314557,388.6934122447856,-17.93843013746664,8.553151198662817,0.0
1656996946.3150964,-26.173689839895815,83.99628305481747,32.0341130704619,8.119322803802788,0.0
1656996946.3150964,-161.26635603932664,-387.952912053559,38.13388989819214,10.385702176950872,0.0
1656996946.3308625,49.60790296224877,-56.2312657837756,-14.056413983460516,12.652081550098956,0.0
1656996946.3308625,170.38423213129863,387.2722502616234,-16.487348954658955,10.352043077349663,0.0
1656996946.3316042,-21.07246630033478,66.11582136666402,30.934582483489066,8.766325496137142,0.0
1656996946.3316042,-161.86100013228133,-374.9006612082012,32.93168905982748,8.654128497466445,0.0
1656996946.3451042,47.21436699060723,-50.23620615480468,-12.111666006501764,7.318984213285148,0.0
1656996946.3451042,160.97464384278283,381.9354130248539,-18.24510193383321,10.8569295713678,0.0
1656996946.360857,-26.33076563803479,87.74740271037444,30.900923383887857,5.849203530699015,0.0
1656996946.360857,-161.18033834034577,-370.6783141582273,38.52657939353958,7.913628306239843,0.0
1656996946.3615792,48.62430927390233,-62.88454780494794,-14.606179276946932,9.129095791839063,0.0
1656996946.3615792,175.41065767174587,394.2022848795168,-20.28334740968421,11.474013064056635,0.0
1656996946.375106,-24.864724855404347,82.4629240729846,27.370457825716585,7.289065013639629,0.0
1656996946.375106,-161.75628293352202,-383.7604842032306,33.21218155650422,8.108103103935719,0.0
1656996946.4072258,52.45396682852879,-53.123408920597285,-13.233635993208736,9.705040385015309,0.0
1656996946.4072258,166.94352417206392,383.5996685051359,-15.327979968395084,9.327310489490628,0.0
1656996946.407975,-26.652397034224123,79.15311261219904,26.8094728323631,9.604063086211681,0.0
1656996946.407975,-161.32993433857337,-372.87737533217296,35.07839163439348,10.415621376596391,0.0
1656996946.408722,46.12979600345716,-64.44034618651494,-12.904524797108024,11.27579836640507,0.0
1656996946.408722,173.03208129992709,383.55852960562333,-16.655644452665,8.736406296491623,0.0
1656996946.4095464,-26.555159635376185,90.61216607643291,30.706448586191982,9.68260098528117,0.0
1656996946.4095464,-159.5721813593991,-379.8335892497562,36.08816462242976,10.101469780318439,0.0
1656996946.4201467,42.95088104112074,-64.56376288505271,-16.73792225169018,7.408741812221706,0.0
1656996946.4201467,170.96017672447488,395.11482046870515,-13.185017293784767,6.387749124318361,0.0
1656996946.4351492,-22.531027283053845,76.29208914609626,27.871604419779032,6.45132742356509,0.0
1656996946.4351492,-161.96945723099634,-366.84117680368945,34.00130044715479,8.336237001232803,0.0
1656996946.4508264,49.877175759058446,-51.73964593699202,-13.372012291569263,8.227779902517796,0.0
1656996946.4508264,167.67654456337914,371.21685975184664,-20.27586760977283,10.09025008045137,0.0
1656996946.4515505,-24.984401653986424,84.23937655193731,28.051119617652148,10.43058097641915,0.0
1656996946.4515505,-161.88717943197116,-376.0188912949525,33.16356285708025,10.307164277881384,0.0
1656996946.4651513,43.893335829954594,-74.51563666714355,-18.491935330908746,7.4237014120444655,0.0
1656996946.4651513,172.64687160449103,387.3545280606486,-15.88148516183719,11.227179666981101,0.0
1656996946.4815505,-19.374551720451564,86.1691649290733,30.979461282957345,8.953320493921638,0.0
1656996946.4815505,-164.77812209771946,-379.8747281492688,37.16899570962414,12.001338957808912,0.0
1656996946.482278,50.79719114815816,-58.66594065492973,-14.176090782042593,8.86730279494077,0.0
1656996946.482278,173.0246015000157,389.7181448326446,-13.330873392056674,9.757398984394968,0.0
1656996946.4951484,-24.30747976200655,86.04948813049123,26.83191223209724,7.943547505885363,0.0
1656996946.4951484,-158.26695627486333,-364.6682949294336,37.64022310404107,9.611542886123061,0.0
1656996946.510548,44.96294721728191,-70.03897642018273,-15.298060768749565,11.365555965341628,0.0
1656996946.510548,167.57182736461982,387.30216946126893,-20.29830700950697,8.100623304024339,0.0
1656996946.525822,-25.478068448137492,96.12477861111984,30.175382792484015,10.86440937127918,0.0
1656996946.525822,-166.92108477232978,-380.32351614395157,38.276006096508354,10.987826069816947,0.0
1656996946.5265725,42.81250474276021,-63.572689396794885,-15.657091164495796,11.64230856206268,0.0
1656996946.5265725,173.768841591198,390.77279662014917,-19.842039214912802,7.461100411601365,0.0
1656996946.5569787,-23.009734477382153,85.11451314156875,29.763993797358125,9.880815682932734,0.0
1656996946.5569787,-157.25718328682706,-370.0462710657157,35.770273126196116,10.767171972431242,0.0
1656996946.5576797,50.0791303566657,-56.792250777129084,-14.520161577966064,9.738699484616518,0.0
1656996946.5576797,165.64203898748383,379.0444703591056,-19.228695622179657,9.25251249037683,0.0
1656996946.5715556,-23.12567137600854,90.6907039755024,27.55371292354539,11.496452463790774,0.0
1656996946.5715556,-157.84060767991468,-365.05724452482536,35.91612922446802,6.724340120330453,0.0
1656996946.5722764,40.12725657457486,-73.76017687609419,-16.064740259665996,10.524078475311399,0.0
1656996946.5722764,166.73408977454528,396.4237854531966,-11.760115410666913,8.108103103935719,0.0
1656996946.5730305,-28.903816807549447,87.33227381529287,25.646363946143538,9.727479784749448,0.0
1656996946.5730305,-160.6156134470366,-376.7818308859132,36.574351616669446,11.339376665651798,0.0
1656996946.5851295,43.99805302871391,-65.5286570736207,-15.230742569547147,10.662454773671925,0.0
1656996946.5851295,170.18601743364707,386.51305057061836,-15.571073465514928,7.685494408942759,0.0
1656996946.6012578,-23.54454017104581,82.67609837045893,24.505694459658116,7.977206605486572,0.0
1656996946.6012578,-157.97524407831952,-371.6319886469282,38.50040009384975,6.563524422235787,0.0
1656996946.6158113,45.127502815332264,-72.85512108681723,-14.778214674908668,8.321277401410043,0.0
1656996946.6158113,165.49618288921192,382.4216000190936,-17.022154648322612,9.64894188567996,0.0
1656996946.6165557,-22.654443981591612,99.79362046765164,32.07899186993018,6.537345122545958,0.0
1656996946.6165557,-166.70417057489976,-375.9066942962818,31.914436271879822,10.568957274779677,0.0
1656996946.6308556,45.823124207090586,-72.10340119572356,-12.956883396487683,6.43262792378664,0.0
1656996946.6308556,172.19434370985255,393.4954437878914,-12.975582896266133,11.230919566936791,0.0
1656996946.6316037,-22.183216587174684,82.86683326819912,27.007687530014664,11.436614064499736,0.0
1656996946.6316037,-155.21145801106468,-370.0836700652726,37.54298570519313,8.960800293833017,0.0
1656996946.6451323,46.53744509862736,-68.09796834317967,-13.06534049520269,9.847156583331525,0.0
1656996946.6451323,166.55831447662786,378.25535146845505,-18.77616772754118,10.617575974203646,0.0
1656996946.66086,-19.363332020584494,94.21742963371798,30.74758748570457,7.958507105708122,0.0
1656996946.66086,-152.78426293982193,-369.28707137471065,38.88560978928581,11.25335896667093,0.0
1656996946.661605,42.76388604333624,-74.56425536656752,-14.811873774509877,9.420807988382876,0.0
1656996946.661605,166.08334718225524,391.88728680694476,-15.974982660729438,9.28243169002235,0.0
1656996946.6751795,-19.09031932381913,97.48984209494665,25.724901845213026,8.583070398308337,0.0
1656996946.6751795,-169.47917634202167,-385.5743356817402,28.683162710163742,7.835090407170355,0.0
1656996946.690907,47.472420087549835,-64.57872248487547,-8.510142349172384,10.09025008045137,0.0
1656996946.690907,171.5024622180499,382.1186681226827,-16.24425545753911,10.146348579786718,0.0
1656996946.6916535,-19.17259712284431,72.75040388805792,26.8094728323631,8.654128497466445,0.0
1656996946.6916535,-160.58195434743538,-373.92080741981044,35.97970752371475,8.579330498352647,0.0
1656996946.7051787,49.6714812614955,-78.96611761441454,-13.379492091480643,8.575590598396957,0.0
1656996946.7051787,170.51512862974778,375.9029543963261,-22.418830284383148,7.9098884062841535,0.0
1656996946.7372472,-20.436683307867497,102.93139653047547,28.675682910252362,9.331050389446318,0.0
1656996946.7372472,-158.30435527442023,-372.51460503647104,37.008180011529475,8.631689097732306,0.0
1656996946.737974,44.09155052760616,-80.29752199864015,-15.533674465958029,11.081323568709195,0.0
1656996946.737974,167.67654456337914,393.44308518851176,-17.44476334331557,6.881415918469429,0.0
1656996946.738722,-23.783893768209964,85.89615223230794,28.39145051361993,8.766325496137142,0.0
1656996946.738722,-160.99334334256127,-354.91463584499434,37.67014230368659,9.312350889667869,0.0
1656996946.7394695,38.95666788844392,-80.03198910178617,-14.561300477478653,12.999892245978117,0.0
1656996946.7394695,171.3940051193349,372.5968828354962,-16.69678335217759,9.940654082223773,0.0
1656996946.7501729,-18.061846836004406,99.22141577443108,25.335952249821275,8.497052699327469,0.0
1656996946.7501729,-151.1237473594956,-353.4149359627627,43.048118439968675,6.7019007205963135,0.0
1656996946.7651937,45.901662106160074,-84.134659353178,-13.360792591702193,10.108949580229819,0.0
1656996946.7651937,169.3221005438827,401.90273888828233,-14.598699477035552,9.783578284084797,0.0
1656996946.7972748,-19.726102316286415,112.41952271806076,28.253074215259403,7.782731807790697,0.0
1656996946.7972748,-169.86812593741342,591.0201298976317,32.38192376634106,7.487279711291194,0.0
1656996946.7980032,43.437068035360426,909.2369974274188,-16.457429755013436,9.23381299059838,0.0
1656996946.7980032,170.07382043497637,1376.2757038939744,-12.560454001184553,8.373636000789702,0.0
1656996946.798756,-23.96340896608308,1071.6234535034746,27.871604419779032,9.63772218581289,0.0
1656996946.798756,-161.66652533458546,615.4117574086413,36.39483641879633,10.333343577571213,0.0
1656996946.7995083,39.6298498804681,904.8126957798377,-7.261015763971955,8.190380902960896,0.0
1656996946.7995083,168.52550185332075,1356.7983049247414,-20.455382807645947,11.107502868399024,0.0
1656996946.8101795,-24.36731816129759,1081.6463853847235,23.825032667722553,8.253959202207625,0.0
1656996946.8101795,-154.63925331784412,613.7774211280048,38.84073098981753,10.396921876817942,0.0
1656996946.841604,38.91178908897564,906.7275245571509,-10.050981130916625,11.627348962239921,0.0
1656996946.841604,177.0262944526039,1368.0479239914566,-13.443070390727371,7.004832617007196,0.0
1656996946.8423288,-18.069326635915786,1071.7244308022782,26.113851440604776,8.272658701986074,0.0
1656996946.8423288,-157.65735258208588,606.8698259098455,29.16186990449205,9.757398984394968,0.0
1656996946.8430862,43.508126134518534,910.1196138169616,-16.618245453108102,10.47171987593174,0.0
1656996946.8430862,170.67220442788675,1360.0520178861916,-17.52330124238506,9.218853390775621,0.0
1656996946.8551877,-13.611365888733417,1075.5914873564616,19.385771420318633,6.9038553182035685,0.0
1656996946.8551877,-157.01034988975152,618.6243314705789,37.25501340860501,7.520938810892403,0.0
1656996946.8856077,43.29495183704421,885.5222918083891,-18.70510962838307,11.877922259271145,0.0
1656996946.8856077,171.88393201353028,1372.9247535336763,-11.760115410666913,9.155275091528893,0.0
1656996946.9176855,-15.391558267641813,1094.0366739379242,29.311465902719647,10.295944578014314,0.0
1656996946.9176855,-166.99588277144358,1579.4364192369394,34.73058093851432,7.782731807790697,0.0
1656996946.918403,39.53635238157585,1878.3367034955882,-15.997422060463578,8.332497101277113,0.0
1656996946.918403,171.08733332296833,2353.0235053715296,-14.247148881200701,9.405848388560116,0.0
1656996946.9191535,-19.681223516818136,2058.3979267622344,28.78787990892306,11.907841458916664,0.0
1656996946.9191535,-164.9464175957255,1596.2697089374997,38.679915291722864,10.87936897110194,0.0
1656996946.9199033,38.45926119433716,1882.4580732467584,-8.929011144209653,8.598029998131096,0.0
1656996946.9199033,168.74241605075076,2340.319065222051,-17.94217003742233,9.895775282755494,0.0
1656996946.9315567,-19.07535972399637,2069.7073842282407,28.82527890847996,5.108703339472413,0.0
1656996946.9315567,-160.0172294541262,1594.8822060539387,37.34477100754157,4.959107341244817,0.0
1656996946.9322827,37.23631390882656,1872.1359493690543,-15.10732587100938,8.717706796713173,0.0
1656996946.9322827,169.8718658373691,1383.3029759107158,-9.88268563291058,6.971173517405987,0.0
1656996946.9330287,-22.052320088725537,1081.0442614918575,27.052566329482943,7.154428615234792,0.0
1656996946.9330287,-158.28565577464178,601.0542814787477,38.11893029836938,7.853789906948805,0.0
1656996946.945129,41.36516345990822,894.1053622066975,-12.362239303532988,8.669088097289205,0.0
1656996946.945129,170.93025752482936,1360.5120255807415,-13.315913792233914,9.454467087984085,0.0
1656996946.9608672,-21.768087692093104,1088.0154350092635,22.628264681901783,8.216560202650726,0.0
1656996946.9608672,-158.5773679711856,619.1329578645527,38.197468197438866,9.491866087540984,0.0
1656996946.9615965,36.71272791502997,889.202353364788,-12.66891109989956,7.5845171101391315,0.0
1656996946.9615965,176.87295855442062,1377.438812780194,-15.653351264540106,7.25540591403842,0.0
1656996946.9758625,-9.357229689136147,100.49859160929918,31.39272022806108,11.27579836640507,0.0
1656996946.976602,-161.57863768562675,-377.61021872609854,37.585994554683566,12.304270854219794,0.0
1656996946.976602,40.1291265245527,-82.33015762455761,-15.939453611150384,10.004232381470501,0.0
1656996947.0065577,168.2319197067991,389.72749458253384,-17.203539796173573,10.557737574912608,0.0
1656996947.0065577,-17.854282388463616,93.63213529065251,20.655467455275357,6.750519420020282,0.0
1656996947.0072584,-159.42819521110505,-358.7985219489783,33.87975369859487,6.462547123432159,0.0
1656996947.0072584,43.40901878569275,-76.67542889155447,-11.002785669639707,10.505378975532949,0.0
1656996947.0080032,166.53774502687156,377.6326581258327,-19.481138869188726,8.624209297820926,0.0
1656996947.0080032,-14.540731027722359,111.65845307707787,26.291496688500047,11.230919566936791,0.0
1656996947.0201564,-166.65742182545364,-365.08529377449304,37.3503808574751,11.552550963126123,0.0
1656996947.0201564,37.44387835636735,-96.41088095773011,-15.049357421696186,8.915921494364738,0.0
1656996947.0358284,169.40624829288572,386.82907211687416,-17.469072693027556,8.47461329959333,0.0
1656996947.0358284,-11.350596365518868,105.30062315240502,28.382100763730705,7.049711416475475,0.0
1656996947.036579,-161.77311248332262,-369.3226004242897,32.754043811932206,9.843416683375835,0.0
1656996947.036579,34.365940692834556,-81.95990752894431,-11.193520567379892,9.966833381913602,0.0
1656996947.050151,169.57828369084746,383.9156900513917,-12.637121950276196,8.84860329516232,0.0
1656996947.050151,-19.058530174195766,104.9378528567031,28.045509767718613,13.026071545667946,0.0
1656996947.0658352,-160.63992279674858,-364.1727581853047,39.41480563301593,5.318137736991048,0.0
1656996947.0658352,33.39356670435518,-95.51330496836454,-13.631935338489711,6.410188524052501,0.0
1656996947.066579,170.24024598300457,391.4029697626829,-18.340469382703304,7.958507105708122,0.0
1656996947.066579,-11.556290863081813,114.63541344180703,31.074828731827438,13.059730645269156,0.0
1656996947.0801787,-165.8982221344486,603.8909955951385,37.15964595973492,10.266025378368795,0.0
1656996947.0801787,35.03164288494736,889.8362664072774,-13.7104732375592,8.317537501454353,0.0
1656996947.0955913,177.55549029633403,1375.8774045486934,-10.613836074247956,8.87478259485215,0.0
1656996947.0955913,-8.691527497023344,1075.3502638093196,24.746918006800115,11.055144269019365,0.0
1656996947.1272576,-161.23082698974758,610.6826539146714,37.30176215805113,9.342270089313388,0.0
1656996947.1272576,33.591781402006745,892.0502871810459,-11.574990362860262,7.756552508100867,0.0
1656996947.1279607,168.99485929775983,1357.3275007684715,-14.48089262843132,9.779838384129107,0.0
1656996947.1279607,-11.750765660777688,1098.8181360312738,24.017637515440583,6.346610224805772,0.0
1656996947.1287284,-161.45522098708898,622.156666978728,43.229503587819636,7.984686405397952,0.0
1656996947.1287284,33.655359701253474,888.4375438238494,-10.49415927566588,10.06407078076154,0.0
1656996947.1294549,168.43013440445065,400.0084795607254,-15.976852610707283,7.7079338086768985,0.0
1656996947.1294549,-15.838476312346756,111.28072318155318,28.299822964705527,6.82531741913408,0.0
1656996947.1401336,-166.53026522696018,-371.57028029765934,38.2030780473724,8.556891098618507,0.0
1656996947.1401336,35.76466327626258,-86.9302345700562,-14.237799131311476,10.09025008045137,0.0
1656996947.1722445,170.94334717467427,383.2948666587472,-10.737252772785723,10.381962276995182,0.0
1656996947.1722445,-13.493559040129185,107.5707424255088,23.651127319782972,9.046817992813885,0.0
1656996947.1729531,-158.63907632045448,-358.85462044831365,42.33192759845406,7.595736810006201,0.0
1656996947.1729531,37.30550205800682,-98.0826162379235,-11.350596365518868,10.022931881248951,0.0
1656996947.173701,172.1588146602735,-581.2683407631703,-16.10400920920074,6.44010772369802,0.0
1656996947.173701,-9.585363586433232,-871.9408451193012,24.1223547141999,9.155275091528893,0.0
1656996947.1744485,-167.50263921543956,-1360.4241379317828,33.9433319978416,8.751365896314383,0.0
1656996947.1744485,34.810988787561655,-1080.9601137428544,-16.380761805921793,6.683201220817864,0.0
1656996947.1851757,167.94394741021097,-594.7843392030336,-24.97131200414151,7.692974208854139,0.0
1656996947.1851757,-9.24129279050976,-871.7351506217383,23.987718315795064,11.3019776660949,0.0
1656996947.2001815,-166.75465922430158,-1347.3494476866908,43.43519808538258,10.284724878147244,0.0
1656996947.2001815,29.81074254680425,-1070.1555427708663,-10.03789148107171,5.7744055315852165,0.0
1656996947.2159083,174.94504012726247,-602.6082099103369,-18.740638677962124,9.802277783863246,0.0
1656996947.2159083,-10.303424377925694,-854.1239617303945,33.0532358083874,11.028964969329536,0.0
1656996947.2166536,-166.713520324789,-365.00675587542355,46.483216549269855,11.541331263259053,0.0
1656996947.2166536,32.48477101512253,-109.23125800583512,-18.86779527645558,8.306317801587284,0.0
1656996947.2466047,178.17631368897855,379.2482949066907,-27.41346667520702,7.737853008322418,0.0
1656996947.2466047,-6.245632926002145,120.95958426687866,29.055282755754888,7.524678710848093,0.0
1656996947.247352,-177.3086568992585,605.1214226805605,45.96337045542896,11.014005369506776,0.0
1656996947.247352,34.71001148875803,882.4985826942138,-9.323570589534938,9.544224686920643,0.0
1656996947.2481036,180.25195816438645,1369.538274123799,-23.464132321998477,7.913628306239843,0.0
1656996947.2481036,-12.49874565191567,1100.8937805066817,20.05708346236497,7.954767205752432,0.0
1656996947.2602,-172.95167345087975,617.5453703333624,46.62533274758607,9.27121199015528,0.0
1656996947.2602,39.35496723372489,872.3260548147373,-9.218853390775621,9.446987288072705,0.0
1656996947.2922883,179.8667484689504,386.31670582294464,-25.427579798735678,7.524678710848093,0.0
1656996947.2922883,-4.02039245236665,129.15744496975094,21.807356641627848,8.119322803802788,0.0
1656996947.2929635,-174.05120403785259,607.2718651550822,39.672858729958534,8.205340502783656,0.0
1656996947.2929635,34.91570598632097,873.5265627005138,-17.36061559431255,6.9823932172730565,0.0
1656996947.2937527,185.50651760213077,409.54896434769034,-19.933666763827205,8.04452480468899,0.0
1656996947.2937527,-11.26083876658231,125.77657540980726,25.969865292310715,7.618176209740341,0.0
1656996947.2945023,-176.90474770404398,606.6099028629251,43.57357438374311,11.331896865740418,0.0
1656996947.2945023,33.89845319837332,878.1715184454806,-15.591642915271223,6.765479019843042,0.0
1656996947.3051777,168.98363959789276,1346.2424372998066,-28.415759863331914,8.096883404068649,0.0
1656996947.3051777,-0.5161061938852072,1105.6808524499647,27.611681372858584,9.24129279050976,0.0
1656996947.3365517,-170.1130893845111,617.5266708335839,43.020069190301,5.924001529812813,0.0
1656996947.3365517,28.419499763287604,861.233511546161,-10.643755273893476,9.746179284527898,0.0
1656996947.3372495,186.32181579247117,394.64546302426606,-26.766463982872665,12.49126585200429,0.0
1656996947.3372495,-5.983839929103851,134.8757520020008,22.652574031613767,9.301131189800799,0.0
1656996947.3380156,-178.29225058760494,598.3783830604516,42.95649089105427,9.106656392104924,0.0
1656996947.3380156,32.88120041042566,878.5903872405179,-12.405248153023422,5.778145431540906,0.0
1656996947.350166,178.81957648135722,388.71772159449756,-22.48427853360772,9.903255082666874,0.0
1656996947.350166,-18.13103498518467,115.86210062727332,22.693712931126356,7.7490727081894875,0.0
1656996947.365857,-172.05035756155849,-366.7345896549523,42.94901109114289,12.569803751073778,0.0
1656996947.365857,35.08400148432702,-108.2364446176216,-9.23755289055407,10.763432072475553,0.0
1656996947.3665736,183.6403075242415,-587.0614457945339,-19.73919196613133,9.723739884793758,0.0
1656996947.3665736,0.05983839929103851,-842.0889636729844,26.19425928965211,9.162754891440272,0.0
1656996947.396263,-174.3765753339976,-372.6511113848537,43.36787988618016,9.716260084882379,0.0
1656996947.396263,22.10280873812735,-114.16044614743441,-15.329849918372929,7.1020700158551335,0.0
1656996947.3970044,178.3857480864972,-584.4771749251522,-21.927033440209925,8.358676400966942,0.0
1656996947.3970044,-6.0586379282176495,-862.6733730291016,21.134174649603665,8.190380902960896,0.0
1656996947.4108284,-174.24567883554846,-373.5935661736876,42.062654801644385,9.596583286300302,0.0
1656996947.4108284,34.825948387384415,-105.73071164730936,-10.243585978634655,7.315244313329458,0.0
1656996947.4115727,181.92369344457984,381.8213460762054,-23.265917624346912,7.883709106594324,0.0
1656996947.4115727,-5.909041929990053,137.90133106615394,21.904594040475786,10.576437074691057,0.0
1656996947.4258208,-168.43013440445065,620.4961513984017,43.3903192859143,8.934620994143188,0.0
1656996947.4258208,26.366294687613845,866.8807604792528,-11.836783359758556,8.235259702429175,0.0
1656996947.426571,179.376821574755,382.75258116517216,-28.767310459166765,7.042231616564095,0.0
1656996947.426571,-0.7704193908721209,135.71348959207535,25.977345092222095,12.693220449611545,0.0
1656996947.4401467,-177.32735639903694,602.3987755128182,43.77178908139467,10.423101176507771,0.0
1656996947.4401467,28.090388567186892,871.9857239187695,-12.790457848459482,9.547964586876333,0.0
1656996947.45583,183.72632522322237,386.4027235219255,-23.669826819561422,10.07155058067292,0.0
1656996947.45583,-7.951027305796742,123.42417833767831,23.00412462744862,10.643755273893476,0.0
1656996947.4565778,-177.29743719939142,-362.04101521056145,40.15156592428684,11.432874164544046,0.0
1656996947.4565778,29.04780295584351,-111.56121567822993,-14.447233528830111,8.807464395649731,0.0
1656996947.470154,181.1644937535748,-601.3852626248263,-19.122108473442495,7.311504413373768,0.0
1656996947.470154,-4.83195074275136,-847.1602680128999,28.63267406076193,10.961646770127118,0.0
1656996947.4862795,-171.57165036723018,-363.5369751928374,49.01512881927192,8.272658701986074,0.0
1656996947.4862795,28.19510576594621,-113.30400905758142,-12.999892245978117,9.559184286743402,0.0
1656996947.500832,185.3457019040361,-588.9613149720244,-24.9376529045403,9.839676783420146,0.0
1656996947.500832,-6.795398219488561,-855.8630152097903,23.217298924922943,9.66390148550272,0.0
1656996947.50158,-174.47381273284554,-366.78694825433195,45.54450166039169,9.817237383686006,0.0
1656996947.50158,27.106794878840446,-103.3072564760223,-12.663301249966025,9.27121199015528,0.0
1656996947.5159197,182.79883003421128,379.13235800806433,-21.908333940431476,6.615883021615446,0.0
1656996947.5159197,-2.7563062673434615,132.22416293341666,21.941993040032685,7.472320111468434,0.0
1656996947.516667,-170.28886468242854,618.6374211204238,43.93634467944503,6.5784840220585465,0.0
1656996947.516667,25.446279298514128,857.531010590028,-9.708780284970999,6.989873017184436,0.0
1656996947.5301964,180.0088646672666,387.35639801062644,-22.50297803338617,10.703593673184514,0.0
1656996947.5301964,-4.775852243416011,131.36772584356368,22.342162335291505,8.04452480468899,0.0
1656996947.5458837,-173.31444374658167,596.5944507815875,43.80918808095157,12.05743745714426,0.0
1656996947.5458837,24.309349711984396,866.5329497833736,-13.68055403791368,9.779838384129107,0.0
1656996947.5466287,182.54077693726867,392.2332275528461,-22.039230438880622,9.600323186255991,0.0
1656996947.5466287,-1.6567756803706288,133.83231991436332,22.618914932012558,6.776698719710112,0.0
1656996947.5602276,-173.85298934020102,621.2104722899385,49.12358591798693,8.4484339999035,0.0
1656996947.5602276,20.48343205731362,865.8859470910393,-13.542177739553154,12.973712946288288,0.0
1656996947.5758832,180.66334715951234,381.5184141797945,-23.565109620802104,8.904701794497669,0.0
1656996947.5758832,-2.0719045754522085,137.2468485739082,19.215605972334743,6.537345122545958,0.0
1656996947.5766215,-175.33398972265422,606.5874634631909,41.669965306296945,9.27121199015528,0.0
1656996947.5766215,27.36110807582736,865.1080479002558,-12.06491725705564,6.873936118558049,0.0
1656996947.590145,185.5289570018649,392.23696745280176,-18.49380528088659,10.87188917119056,0.0
1656996947.590145,-1.7427933793514967,133.15165812242776,19.634474767372012,8.82616389542818,0.0
1656996947.6059551,-173.59493624325842,614.6581675675698,44.31407457496971,9.106656392104924,0.0
1656996947.6059551,24.59732200857252,865.261383798439,-12.89143514726311,5.938961129635572,0.0
1656996947.606668,181.69555954728276,382.2215153714642,-17.199799896217883,9.749919184483588,0.0
1656996947.606668,-1.9372681770473719,143.31670620199293,25.69685259554535,9.372189288958907,0.0
1656996947.6202042,-170.40480158105493,602.9485408063047,42.24964979942888,8.512012299150229,0.0
1656996947.6202042,14.133081932552159,850.5448774727993,-18.49380528088659,8.87104269489646,0.0
1656996947.63588,181.57588274870068,382.0644395733252,-26.044663291424513,9.772358584217727,0.0
1656996947.63588,3.096637163311243,134.79721410293132,28.468118462711573,7.0235321167856455,0.0
1656996947.6366284,-175.65188121888787,608.902461535763,43.41649858560413,9.402108488604426,0.0
1656996947.6366284,26.800123082473874,863.8103026156314,-11.881662159226835,7.846310107037425,0.0
1656996947.6501527,182.16678694169968,394.3387912278995,-22.809649829752743,8.171681403182447,0.0
1656996947.6501527,-5.146102339029312,130.5038089537993,17.222239295952022,7.621916109696031,0.0
1656996947.682302,-171.72124636545777,-354.04136920534074,43.319261186756194,9.611542886123061,0.0
1656996947.682302,24.634721008129418,-109.81842229887843,-9.589103486388922,7.22922661434859,0.0
1656996947.6830451,179.26088467612863,378.8556054113433,-22.99664482753724,9.319830689579248,0.0
1656996947.6830451,-1.1743285860866308,137.56847997009754,21.504424745216966,8.515752199105918,0.0
1656996947.6837966,-170.3000843822956,619.6696335081942,46.62159284763038,8.957060393877327,0.0
1656996947.6837966,20.47969215735793,848.2149198004045,-15.225132719613612,11.552550963126123,0.0
1656996947.6845984,181.9760520439595,389.06179239042103,-23.034043827094138,10.355782977305353,0.0
1656996947.6845984,-4.989026540890336,134.74485550355166,18.5648633800447,9.63024238590151,0.0
1656996947.695188,-175.94359341543168,610.1291487212293,38.59202764276415,12.008818757720292,0.0
1656996947.695188,29.459191950969398,860.6089482535608,-9.147795291617513,8.960800293833017,0.0
1656996947.7101803,182.20418594125658,379.6297647021711,-21.912073840387166,12.562323951162398,0.0
1656996947.7101803,5.478953435085714,147.9579220470041,25.69311269558966,9.039338192902505,0.0
1656996947.7258787,-174.45885313302279,626.4313726280816,47.50046933721751,9.951873782090843,0.0
1656996947.7258787,18.54616388026625,854.8083634222858,-4.222347049973905,5.295698337256908,0.0
1656996947.7266057,179.59747567214072,381.8550051758066,-21.69141974300146,7.599476709961891,0.0
1656996947.7266057,7.072150816209614,144.08712559286505,17.416714093647897,8.06322430446744,0.0
1656996947.7401793,-171.94190046284348,616.6739736436866,44.818961068987846,5.946440929546952,0.0
1656996947.7401793,16.13766830880195,869.7305642454885,-17.009064998477697,10.153828379698098,0.0
1656996947.7558503,183.3485953276977,382.86103826388717,-20.416113858111203,8.814944195561111,0.0
1656996947.7558503,0.9985532881692052,128.6525584757328,16.997845298610628,12.016298557631671,0.0
1656996947.7566,-172.92175425123423,-358.45071125309914,42.051435101777315,8.089403604157269,0.0
1656996947.7566,27.492004574276507,-118.96621759049594,-12.603462850674987,9.62650248594582,0.0
1656996947.7865543,185.97026519663632,-607.9562668469734,-21.31742974743247,10.318383977748454,0.0
1656996947.7865543,-3.2387533616274595,-843.7569590532221,22.843308929353952,10.654974973760545,0.0
1656996947.787306,-168.860222899355,-359.6886181384325,50.98979599587619,9.981792981736362,0.0
1656996947.787306,21.904594040475786,-135.2160828979686,-13.69551363773644,8.291358201764524,0.0
1656996947.7880523,179.73211207054555,-596.8375442787074,-23.460392422042787,8.740146196447313,0.0
1656996947.7880523,-0.11967679858207703,-834.9195754579268,27.630380872637033,9.185194291174412,0.0
1656996947.8001819,-170.17666768375784,-363.96706368774176,46.70013074669987,12.917614446952939,0.0
1656996947.8001819,26.22791838925332,-117.22716411110014,-6.2979915253818035,8.347456701099873,0.0
1656996947.830599,178.84949568100274,-602.1893411152996,-23.553889920935035,7.281585213728249,0.0
1656996947.830599,3.388349359855056,-825.3117724717595,22.18882643710822,9.914474782533944,0.0
1656996947.847234,-177.8285029930994,-364.8122810777277,43.36413998622447,10.628795674070716,0.0
1656996947.847234,27.110534778796136,-132.6953903278336,-15.778637913055718,9.215113490819931,0.0
1656996947.8479779,182.1219081422314,-600.1548355394043,-24.242031512781978,10.823270471766591,0.0
1656996947.8479779,5.254559437744319,-832.4400217873044,20.625548255629838,9.993012681603432,0.0
1656996947.8487022,-173.05639064963907,-364.71504367887974,46.27378215175122,8.538191598840058,0.0
1656996947.8487022,21.036937250755727,-127.91953808441758,-9.989272781647742,10.187487479299307,0.0
1656996947.849475,181.51230444945395,-593.3631772198714,-26.295236588455737,7.778991907835007,0.0
1656996947.849475,5.770665631629527,-843.7831383529119,20.670427055098116,8.8186840955168,0.0
1656996947.8602076,-171.4557134686038,-1333.2350652539171,47.45933043770492,6.245632926002145,0.0
1656996947.8602076,16.650034602731466,-1109.1253003091551,-12.05743745714426,8.541931498795748,0.0
1656996947.8758557,182.06206974294037,-1586.7423138003796,-21.968172339722514,10.647495173849165,0.0
1656996947.8758557,4.087710651569068,-1808.0546335782856,27.81737587042153,10.576437074691057,0.0
1656996947.8765917,-175.10211592540145,-1339.110448084306,47.261115740053356,9.727479784749448,0.0
1656996947.8765917,17.899161187931895,-1115.868339929264,-11.608649462461472,7.528418610803783,0.0
1656996947.8901913,180.28187736403197,-1574.303406547755,-22.450619434006512,8.02582530491054,0.0
1656996947.8901913,5.093743739649653,-1818.4440756551921,18.243231983855367,8.85982299502939,0.0
1656996947.9058464,-172.77589815296233,-1349.6532260593958,46.54305494856089,8.302577901631594,0.0
1656996947.9058464,24.728218507021666,-1104.3457081657834,-11.537591363303363,9.435767588205636,0.0
1656996947.906594,174.31673693470657,-1576.558566221036,-20.18797996081412,10.628795674070716,0.0
1656996947.906594,3.5267256582155824,-1813.3017132161185,22.319722935557365,10.221146578900516,0.0
1656996947.920197,-171.6053094668314,-1335.8380356230773,47.317214239388704,8.317537501454353,0.0
1656996947.920197,13.639415138401091,-1111.6160736796446,-11.780684860423207,8.160461703315377,0.0
1656996947.9358487,183.73754492308944,-1583.7503938358277,-21.74377834238112,8.283878401853144,0.0
1656996947.9358487,12.47630625218153,-1789.9722172925249,24.15601381380111,7.5059792110696435,0.0
1656996947.9365945,-179.67227367125452,-1345.6253538071178,46.39719885028899,10.47171987593174,0.0
1656996947.9365945,15.378468617796898,-1114.7575896424241,-10.247325878590345,8.085663704201579,0.0
1656996947.9501688,182.36500163935125,-1578.1480237022042,-21.627841443754733,12.278091554529965,0.0
1656996947.9501688,3.5192458583042026,-1824.6410898817703,20.853682152926922,7.838830307126045,0.0
1656996947.965596,-171.94564036279917,-1339.0206904853694,47.1713581411168,8.03330510482192,0.0
1656996947.965596,23.239738324657083,-1101.8324953955598,-8.156721803359687,9.884555582888424,0.0
1656996947.9815452,179.21974577661604,-1587.2098012948409,-21.564263144508004,10.165048079565167,0.0
1656996947.9815452,8.908441694453359,-1804.2548952233046,20.244078460149467,10.47545977588743,0.0
1656996947.9822712,-172.64687160449103,-354.4172291508876,43.452027635183185,8.197860702872276,0.0
1656996947.983019,16.64068485284224,-145.6111348248087,-10.114559430163354,9.357229689136147,0.0
1656996947.983019,181.90312399482355,-594.935805151239,-24.199022663291544,8.732666396535933,0.0
1656996947.995171,7.646225459408015,-828.2345042871311,22.246794886421412,10.262285478413105,0.0
1656996947.995171,-179.35251222504303,-364.76553232828155,42.95088104112074,8.205340502783656,0.0
1656996948.0108433,20.216029210481793,-126.4516273518093,-11.236529416870326,6.615883021615446,0.0
1656996948.0108433,183.53372037550434,-600.1791448891163,-20.874251602683216,9.450727188028395,0.0
1656996948.011594,9.172104641329497,-834.1398063171655,19.696183116640896,10.236106178723276,0.0
1656996948.011594,-173.0993994991295,-354.4770675501786,46.39532890031114,10.946687170304358,0.0
1656996948.025172,15.690750264097005,-137.1963599245064,-8.966410143766552,6.511165822856128,0.0
1656996948.025172,179.08697932818905,-605.8675327217206,-28.533566711936146,7.031011916697025,0.0
1656996948.040855,12.900784897152334,-819.7823303872719,19.18755672266707,9.200153890997171,0.0
1656996948.040855,-175.5826930697076,-362.80208485154435,43.459507435094565,6.806617919355631,0.0
1656996948.041602,17.392404743935913,-135.76023834152147,-10.982216219883412,11.376775665208697,0.0
1656996948.041602,184.42381656495854,-592.4786908803508,-22.190696387086064,8.736406296491623,0.0
1656996948.0552263,5.4957829848863184,-832.7186443340033,22.69932278105989,9.68260098528117,0.0
1656996948.0552263,-177.01881465269253,-356.24230032926425,47.77161208400503,5.097483639605343,0.0
1656996948.0708897,19.643824517261237,-128.97979972185567,-8.513882249128073,5.314397837035358,0.0
1656996948.0708897,176.31571346102282,-610.8902183622122,-19.57650631805882,11.530111563391984,0.0
1656996948.0716033,10.305294327903539,-808.2447390239686,22.74794148048386,10.976606369949877,0.0
1656996948.0716033,-170.04390123533085,-350.75960699422285,48.80756437173113,8.085663704201579,0.0
1656996948.0852132,15.137245070654899,-148.88354728603736,-13.555267389398068,9.469426687806845,0.0
1656996948.0852132,177.25816824985668,-604.9475173326209,-22.67314348137006,10.778391672298312,0.0
1656996948.1006043,18.454536331351846,-830.1306335646659,17.49712194269523,10.512858775444329,0.0
